Jul 20 2015 at 12:43:01
Frequency: 1.00Hz.
CO2
Zero:  Value:0.95  Date:18 Mar 2005	 at 07:22:33	
Span:  Value:1.00  Date:18 Mar 2005	 at 07:25:09	
H2O
Zero:  Value:0.71  Date:18 Mar 2005	 at 07:52:31	
Span:  Value:0.99  Date:18 Mar 2005	 at 11:44:01	
	Relative Time	Temperature	Pressure	Aux Input	CO2 Absorptance	CO2 mmol/m3	CO2 mg/m3	CO2 umol/mol	H2O Absorptance	H2O mmol/m3	H2O g/m3	H2O mmol/mol	H2O(°C)	Cooler Voltage
	0.80	37.79	73.67	0.00	0.0656	11.34	499.0	398.01	0.0917	835.1	15.031	29.31	18.66	1.82
	1.76	37.85	73.69	0.00	0.0656	11.35	499.3	398.19	0.0916	833.3	14.999	29.24	18.63	1.82
	2.85	37.82	73.67	-0.00	0.0657	11.35	499.5	398.42	0.0906	828.6	14.915	29.08	18.54	1.82
	3.76	37.79	73.64	0.00	0.0658	11.40	501.6	400.17	0.0896	801.8	14.432	28.15	18.01	1.82
	4.79	37.82	73.67	-0.00	0.0657	11.36	499.9	398.74	0.0894	801.6	14.430	28.13	18.01	1.82
	5.79	37.84	73.67	-0.00	0.0655	11.32	497.9	397.15	0.0906	813.8	14.649	28.56	18.25	1.82
	6.79	37.84	73.64	-0.00	0.0653	11.26	495.5	395.42	0.0893	805.6	14.502	28.29	18.09	1.82
	7.77	37.84	73.67	0.00	0.0656	11.34	499.1	398.15	0.0882	787.9	14.183	27.66	17.74	1.82
	8.85	37.84	73.69	0.00	0.0655	11.30	497.2	396.51	0.0897	802.7	14.449	28.17	18.03	1.82
	9.77	37.87	73.67	0.00	0.0654	11.31	497.8	397.15	0.0884	791.9	14.255	27.80	17.82	1.82
	10.76	37.87	73.67	0.00	0.0651	11.23	494.0	394.06	0.0887	792.4	14.263	27.82	17.83	1.82
	11.78	37.87	73.67	0.00	0.0654	11.29	496.8	396.37	0.0897	804.4	14.479	28.24	18.07	1.82
	12.78	37.87	73.69	0.00	0.0654	11.30	497.3	396.58	0.0896	805.2	14.493	28.25	18.08	1.82
	13.79	37.88	73.69	0.00	0.0654	11.29	496.9	396.29	0.0890	795.6	14.320	27.92	17.89	1.82
	14.77	37.89	73.67	0.00	0.0652	11.25	494.8	394.76	0.0882	788.9	14.199	27.69	17.76	1.82
	15.80	37.87	73.64	-0.00	0.0654	11.29	496.8	396.49	0.0881	783.1	14.096	27.50	17.64	1.82
	16.77	37.88	73.69	0.00	0.0655	11.32	497.9	397.08	0.0886	791.1	14.240	27.76	17.80	1.82
	17.78	37.89	73.59	-0.00	0.0655	11.30	497.2	397.09	0.0881	783.0	14.094	27.52	17.64	1.82
	18.78	37.89	73.67	0.00	0.0655	11.32	498.1	397.41	0.0883	787.1	14.168	27.63	17.72	1.82
	19.78	37.88	73.69	-0.00	0.0655	11.32	497.9	397.07	0.0873	770.9	13.875	27.05	17.39	1.82
	20.80	37.89	73.67	-0.00	0.0655	11.32	497.9	397.21	0.0873	772.6	13.908	27.12	17.43	1.82
	21.78	37.89	73.67	0.00	0.0654	11.28	496.5	396.10	0.0871	770.5	13.868	27.05	17.38	1.82
	22.78	37.89	73.69	0.00	0.0655	11.33	498.5	397.57	0.0877	778.2	14.008	27.31	17.54	1.82
	23.77	37.88	73.69	0.00	0.0654	11.33	498.3	397.41	0.0874	779.3	14.027	27.34	17.56	1.82
	24.77	37.88	73.67	0.00	0.0655	11.31	497.9	397.19	0.0868	765.5	13.779	26.87	17.28	1.82
	25.77	37.89	73.67	0.00	0.0653	11.27	495.8	395.58	0.0860	756.7	13.620	26.56	17.10	1.82
	26.79	37.89	73.67	0.00	0.0654	11.28	496.4	396.08	0.0860	757.6	13.636	26.59	17.12	1.83
	27.78	37.90	73.67	0.00	0.0650	11.22	493.8	393.99	0.0854	749.3	13.488	26.30	16.95	1.82
	28.78	37.90	73.67	0.00	0.0655	11.30	497.4	396.84	0.0866	761.9	13.714	26.75	17.21	1.82
	29.78	37.89	73.67	-0.00	0.0657	11.34	499.2	398.24	0.0868	766.9	13.804	26.92	17.31	1.82
	30.78	37.88	73.69	0.00	0.0656	11.34	498.9	397.89	0.0869	767.1	13.807	26.92	17.31	1.82
	31.78	37.93	73.69	0.00	0.0655	11.33	498.3	397.47	0.0867	765.8	13.784	26.88	17.29	1.82
	32.78	37.94	73.69	0.00	0.0655	11.30	497.4	396.73	0.0859	756.2	13.612	26.54	17.09	1.83
	33.80	37.96	73.64	-0.00	0.0653	11.26	495.6	395.61	0.0859	753.3	13.560	26.46	17.03	1.82
	34.79	37.98	73.67	-0.00	0.0657	11.35	499.6	398.71	0.0864	761.7	13.711	26.75	17.21	1.82
	35.79	38.00	73.69	0.00	0.0653	11.29	497.0	396.48	0.0857	753.2	13.558	26.44	17.03	1.82
	36.77	37.96	73.69	0.00	0.0654	11.29	496.8	396.32	0.0859	752.9	13.553	26.43	17.02	1.82
	37.80	38.04	73.67	0.00	0.0653	11.28	496.4	396.21	0.0854	751.0	13.518	26.38	16.99	1.83
	38.80	38.03	73.67	0.00	0.0654	11.30	497.1	396.79	0.0856	751.7	13.531	26.40	17.00	1.83
	39.78	38.05	73.67	0.00	0.0655	11.30	497.3	396.97	0.0857	751.9	13.533	26.41	17.01	1.82
	40.78	38.05	73.67	0.00	0.0656	11.33	498.4	397.86	0.0859	754.6	13.583	26.50	17.06	1.82
	41.78	38.04	73.69	0.00	0.0657	11.36	499.9	398.91	0.0862	758.5	13.653	26.63	17.14	1.83
	42.79	38.04	73.69	-0.00	0.0656	11.36	499.9	398.90	0.0859	755.3	13.596	26.52	17.08	1.83
	43.77	38.02	73.64	0.00	0.0653	11.28	496.4	396.37	0.0852	746.8	13.442	26.23	16.90	1.83
	44.77	38.08	73.69	0.00	0.0656	11.33	498.6	397.92	0.0857	752.2	13.539	26.41	17.01	1.83
	45.85	38.03	73.69	0.00	0.0656	11.33	498.5	397.77	0.0857	751.5	13.527	26.38	17.00	1.83
	46.78	37.97	73.67	-0.00	0.0653	11.30	497.2	396.78	0.0852	746.6	13.438	26.22	16.89	1.83
	47.78	38.03	73.67	-0.00	0.0653	11.29	496.6	396.37	0.0851	745.7	13.422	26.19	16.87	1.83
	48.77	38.01	73.67	0.00	0.0654	11.29	496.7	396.44	0.0851	744.5	13.401	26.14	16.85	1.83
	49.76	38.00	73.67	0.00	0.0653	11.34	499.1	398.29	0.0849	748.6	13.475	26.29	16.94	1.83
	50.78	38.03	73.67	0.00	0.0656	11.35	499.3	398.56	0.0855	749.7	13.494	26.33	16.96	1.83
	51.79	38.02	73.67	-0.00	0.0654	11.34	498.8	398.15	0.0850	748.5	13.473	26.29	16.93	1.83
	52.79	38.04	73.64	0.00	0.0657	11.35	499.5	398.87	0.0856	749.9	13.499	26.35	16.97	1.83
	53.77	38.08	73.64	0.00	0.0655	11.28	496.4	396.42	0.0853	742.3	13.362	26.08	16.81	1.83
	54.79	38.08	73.67	-0.00	0.0657	11.36	500.0	399.17	0.0856	750.9	13.517	26.38	16.99	1.83
	55.77	38.08	73.67	0.00	0.0656	11.36	499.8	399.01	0.0853	750.5	13.510	26.36	16.98	1.83
	56.78	38.07	73.67	0.00	0.0653	11.29	496.7	396.51	0.0848	743.4	13.381	26.11	16.83	1.83
	57.78	38.05	73.67	-0.00	0.0656	11.36	499.7	398.85	0.0855	750.1	13.501	26.34	16.97	1.83
	58.77	38.02	73.67	0.00	0.0658	11.36	500.0	399.10	0.0856	750.8	13.514	26.37	16.98	1.83
	59.78	38.04	73.67	0.00	0.0652	11.25	495.1	395.23	0.0846	737.8	13.280	25.91	16.71	1.83
	60.78	38.03	73.67	-0.00	0.0654	11.30	497.0	396.72	0.0849	741.9	13.354	26.05	16.79	1.83
	61.78	38.07	73.67	0.00	0.0654	11.30	497.1	396.85	0.0848	742.3	13.362	26.07	16.81	1.83
	62.77	38.08	73.67	0.00	0.0656	11.33	498.5	397.94	0.0853	744.2	13.396	26.14	16.85	1.83
	63.79	38.11	73.67	0.00	0.0657	11.38	500.7	399.79	0.0854	749.7	13.495	26.34	16.96	1.83
	64.77	38.05	73.67	0.00	0.0654	11.30	497.2	396.92	0.0847	740.1	13.322	26.00	16.76	1.83
	65.78	38.08	73.67	0.00	0.0654	11.29	496.7	396.49	0.0849	739.2	13.305	25.96	16.74	1.83
	66.77	38.08	73.64	0.00	0.0654	11.29	496.8	396.70	0.0846	738.8	13.299	25.96	16.73	1.83
	67.78	38.07	73.69	-0.00	0.0652	11.25	494.9	394.94	0.0843	733.5	13.204	25.76	16.62	1.83
	68.78	38.08	73.69	0.00	0.0655	11.30	497.4	396.93	0.0848	738.0	13.283	25.91	16.71	1.83
	69.76	38.05	73.67	0.00	0.0654	11.33	498.5	397.95	0.0846	740.8	13.335	26.02	16.77	1.83
	70.79	38.05	73.67	-0.00	0.0655	11.29	497.0	396.71	0.0848	736.9	13.263	25.88	16.69	1.83
	71.76	38.03	73.67	0.00	0.0655	11.32	498.2	397.62	0.0849	739.7	13.315	25.98	16.75	1.83
	72.77	38.03	73.69	0.00	0.0656	11.34	498.9	398.10	0.0849	742.3	13.362	26.06	16.80	1.83
	73.76	38.05	73.67	0.00	0.0656	11.31	497.8	397.34	0.0848	737.5	13.276	25.90	16.70	1.83
	74.85	38.03	73.64	-0.00	0.0655	11.31	497.6	397.35	0.0846	736.7	13.260	25.88	16.68	1.83
	75.78	38.01	73.67	0.00	0.0654	11.30	497.2	396.86	0.0844	735.7	13.243	25.84	16.66	1.83
	76.78	38.00	73.67	0.00	0.0653	11.28	496.1	395.96	0.0841	732.1	13.179	25.71	16.58	1.83
	77.78	38.00	73.66	0.00	0.0653	11.26	495.5	395.42	0.0842	730.7	13.153	25.66	16.55	1.83
	78.78	37.97	73.64	-0.00	0.0655	11.32	498.0	397.53	0.0847	737.2	13.270	25.90	16.69	1.84
	79.79	38.00	73.67	-0.00	0.0656	11.34	499.0	398.25	0.0848	739.7	13.314	25.97	16.75	1.83
	80.79	38.01	73.67	-0.00	0.0656	11.35	499.3	398.52	0.0847	740.3	13.326	26.00	16.76	1.84
	81.78	38.00	73.69	0.00	0.0654	11.29	496.7	396.25	0.0842	731.0	13.158	25.66	16.56	1.84
	82.79	38.01	73.69	-0.00	0.0656	11.33	498.4	397.61	0.0845	735.3	13.236	25.81	16.65	1.84
	83.77	37.98	73.67	0.00	0.0657	11.36	499.9	398.92	0.0847	737.0	13.266	25.88	16.69	1.84
	84.77	37.98	73.69	0.00	0.0657	11.37	500.3	399.14	0.0847	739.5	13.311	25.96	16.74	1.84
	85.77	37.97	73.67	0.00	0.0656	11.34	498.9	398.12	0.0845	737.0	13.266	25.88	16.69	1.84
	86.77	37.95	73.69	0.00	0.0656	11.34	498.8	397.90	0.0844	735.0	13.229	25.80	16.64	1.84
	87.77	37.95	73.72	0.00	0.0653	11.29	496.8	396.16	0.0838	729.5	13.131	25.60	16.53	1.84
	88.78	37.97	73.67	-0.00	0.0654	11.29	496.7	396.40	0.0840	730.7	13.153	25.66	16.55	1.84
	89.79	37.98	73.67	0.00	0.0654	11.30	497.2	396.77	0.0839	728.6	13.114	25.58	16.51	1.84
	90.78	38.01	73.67	0.00	0.0654	11.31	497.7	397.22	0.0841	731.9	13.175	25.70	16.58	1.84
	91.85	38.01	73.67	0.00	0.0656	11.34	499.0	398.26	0.0843	732.2	13.180	25.71	16.59	1.84
	92.77	38.00	73.66	0.00	0.0656	11.32	498.2	397.59	0.0843	731.5	13.167	25.69	16.57	1.84
	93.77	38.01	73.67	0.00	0.0655	11.30	497.2	396.81	0.0840	728.2	13.107	25.57	16.50	1.84
	94.79	38.03	73.67	0.00	0.0656	11.33	498.7	398.06	0.0839	728.1	13.106	25.57	16.50	1.84
	95.77	38.04	73.67	0.00	0.0656	11.31	497.5	397.07	0.0839	726.1	13.069	25.50	16.46	1.84
	96.78	38.02	73.64	0.00	0.0654	11.32	497.9	397.53	0.0837	727.8	13.100	25.57	16.49	1.84
	97.77	38.01	73.69	0.00	0.0656	11.33	498.3	397.57	0.0841	728.6	13.115	25.58	16.51	1.84
	98.80	38.01	73.67	-0.00	0.0654	11.34	499.0	398.27	0.0836	728.4	13.111	25.58	16.50	1.84
	99.78	38.01	73.69	-0.00	0.0655	11.31	497.8	397.20	0.0839	726.1	13.070	25.49	16.45	1.84
	100.78	37.99	73.64	0.00	0.0657	11.35	499.5	398.80	0.0841	728.8	13.119	25.60	16.51	1.84
	101.79	38.01	73.67	-0.00	0.0655	11.36	500.0	399.03	0.0836	729.8	13.136	25.63	16.53	1.84
	102.77	38.03	73.67	0.00	0.0654	11.29	496.6	396.41	0.0835	721.4	12.985	25.34	16.35	1.84
	103.77	38.00	73.67	0.00	0.0656	11.32	498.2	397.65	0.0838	726.2	13.072	25.50	16.46	1.84
	104.77	38.03	73.67	0.00	0.0657	11.37	500.1	399.17	0.0841	729.9	13.137	25.63	16.54	1.84
	105.80	38.03	73.67	-0.00	0.0654	11.30	497.2	396.83	0.0834	722.7	13.008	25.38	16.38	1.84
	106.78	38.03	73.67	0.00	0.0656	11.32	498.3	397.72	0.0838	724.9	13.049	25.46	16.43	1.84
	107.80	38.02	73.69	0.00	0.0658	11.39	501.3	399.95	0.0840	730.9	13.157	25.66	16.56	1.85
	108.78	38.05	73.67	-0.00	0.0654	11.34	499.0	398.35	0.0833	726.3	13.074	25.51	16.46	1.84
	109.78	38.02	73.67	0.00	0.0656	11.33	498.6	397.99	0.0837	725.7	13.062	25.48	16.45	1.84
	110.79	38.05	73.69	0.00	0.0659	11.40	501.4	400.11	0.0842	731.8	13.173	25.70	16.58	1.84
	111.85	38.08	73.67	-0.00	0.0658	11.39	501.0	399.96	0.0841	731.0	13.158	25.68	16.56	1.84
	112.76	38.04	73.67	0.00	0.0657	11.36	499.8	398.98	0.0839	727.8	13.100	25.56	16.49	1.85
	113.79	38.08	73.67	-0.00	0.0654	11.29	497.0	396.73	0.0833	721.4	12.986	25.34	16.36	1.85
	114.80	38.10	73.67	-0.00	0.0654	11.30	497.3	397.05	0.0835	722.8	13.010	25.39	16.39	1.85
	115.78	38.07	73.69	0.00	0.0656	11.35	499.4	398.55	0.0839	728.2	13.108	25.57	16.50	1.85
	116.80	38.07	73.66	-0.00	0.0655	11.35	499.6	398.83	0.0837	728.6	13.115	25.59	16.51	1.85
	117.77	38.09	73.67	0.00	0.0655	11.31	497.4	397.12	0.0836	723.4	13.021	25.41	16.40	1.85
	118.76	38.12	73.69	0.00	0.0658	11.37	500.1	399.14	0.0842	729.1	13.124	25.60	16.53	1.85
	119.84	38.12	73.69	0.00	0.0657	11.36	499.7	398.80	0.0838	728.6	13.115	25.59	16.51	1.85
	120.78	38.10	73.67	0.00	0.0657	11.37	500.3	399.42	0.0839	729.8	13.136	25.64	16.54	1.85
	121.77	38.10	73.67	-0.00	0.0656	11.35	499.2	398.57	0.0838	727.8	13.101	25.57	16.50	1.85
	122.80	38.12	73.67	-0.00	0.0653	11.29	496.6	396.51	0.0833	721.4	12.986	25.34	16.36	1.85
	123.77	38.10	73.67	0.00	0.0653	11.28	496.4	396.29	0.0833	720.6	12.971	25.31	16.34	1.85
