Jul 22 2015 at 16:34:52
Frequency: 1.00Hz.
CO2
Zero:  Value:0.95  Date:18 Mar 2005	 at 07:22:33	
Span:  Value:1.00  Date:18 Mar 2005	 at 07:25:09	
H2O
Zero:  Value:0.71  Date:18 Mar 2005	 at 07:52:31	
Span:  Value:0.99  Date:18 Mar 2005	 at 11:44:01	
	Relative Time	Temperature	Pressure	Aux Input	CO2 Absorptance	CO2 mmol/m3	CO2 mg/m3	CO2 umol/mol	H2O Absorptance	H2O mmol/m3	H2O g/m3	H2O mmol/mol	H2O(°C)	Cooler Voltage
	0.01	38.50	75.62	0.00	0.0693	12.08	531.7	414.07	0.0470	316.5	5.696	10.84	4.06	1.71
	1.01	38.50	75.57	0.00	0.0692	12.06	530.6	413.48	0.0471	317.3	5.712	10.88	4.10	1.71
	2.01	38.55	75.59	0.00	0.0690	12.02	529.0	412.19	0.0471	317.3	5.711	10.88	4.10	1.71
	3.01	38.50	75.59	0.00	0.0691	12.04	529.9	412.82	0.0471	318.4	5.731	10.91	4.14	1.71
	4.02	38.50	75.62	0.00	0.0690	12.03	529.4	412.27	0.0472	317.5	5.716	10.88	4.11	1.71
	5.02	38.45	75.59	-0.00	0.0690	12.02	528.8	411.86	0.0472	318.1	5.726	10.90	4.13	1.71
	6.01	38.50	75.59	0.00	0.0689	12.01	528.6	411.79	0.0472	318.4	5.731	10.91	4.14	1.71
	7.00	38.47	75.59	0.00	0.0688	11.99	527.8	411.09	0.0470	317.1	5.708	10.87	4.09	1.71
	8.02	38.50	75.59	-0.00	0.0689	11.99	527.7	411.11	0.0472	317.7	5.718	10.89	4.11	1.71
	9.02	38.48	75.57	-0.00	0.0688	11.99	527.6	411.13	0.0473	319.6	5.752	10.96	4.20	1.71
	10.02	38.44	75.57	-0.00	0.0689	12.01	528.2	411.57	0.0473	319.9	5.759	10.97	4.21	1.71
	11.01	38.48	75.57	-0.00	0.0689	12.00	527.8	411.26	0.0473	319.0	5.741	10.94	4.17	1.71
	12.09	38.47	75.62	-0.00	0.0689	11.99	527.5	410.77	0.0473	319.4	5.749	10.94	4.19	1.71
	12.99	38.48	75.59	0.00	0.0689	11.99	527.4	410.82	0.0472	318.9	5.740	10.93	4.16	1.71
	14.02	38.44	75.59	0.00	0.0688	11.99	527.8	411.04	0.0472	319.1	5.743	10.93	4.17	1.71
	15.09	38.44	75.57	0.00	0.0688	11.97	526.6	410.32	0.0471	318.1	5.725	10.90	4.13	1.71
	16.02	38.47	75.62	0.00	0.0688	11.97	526.8	410.18	0.0474	320.3	5.765	10.97	4.23	1.71
	17.02	38.48	75.59	0.00	0.0688	11.98	527.0	410.49	0.0475	321.2	5.782	11.01	4.27	1.71
	18.02	38.48	75.57	0.00	0.0687	11.96	526.2	409.99	0.0476	321.4	5.785	11.02	4.28	1.71
	19.03	38.50	75.62	-0.00	0.0687	11.95	526.0	409.59	0.0477	322.4	5.804	11.05	4.32	1.71
	20.03	38.51	75.59	-0.00	0.0686	11.95	525.6	409.49	0.0476	322.7	5.809	11.06	4.34	1.71
	21.01	38.50	75.59	0.00	0.0687	11.94	525.3	409.25	0.0478	323.5	5.823	11.09	4.37	1.71
	22.09	38.47	75.59	0.00	0.0686	11.94	525.6	409.38	0.0478	324.7	5.844	11.13	4.42	1.71
	23.02	38.50	75.59	-0.00	0.0686	11.94	525.2	409.15	0.0479	324.6	5.843	11.13	4.42	1.71
	24.02	38.47	75.59	0.00	0.0686	11.93	524.9	408.88	0.0481	327.6	5.897	11.23	4.55	1.72
	25.02	38.50	75.59	-0.00	0.0686	11.93	525.0	408.98	0.0484	330.4	5.947	11.32	4.67	1.71
	26.04	38.53	75.59	-0.00	0.0686	11.92	524.5	408.61	0.0481	326.6	5.879	11.20	4.51	1.71
	27.00	38.49	75.57	0.00	0.0685	11.92	524.5	408.73	0.0480	330.6	5.951	11.34	4.68	1.71
	28.03	38.55	75.54	-0.00	0.0686	11.93	524.9	409.25	0.0482	328.0	5.904	11.25	4.57	1.71
	29.02	38.47	75.59	0.00	0.0686	11.93	524.8	408.77	0.0481	326.4	5.875	11.19	4.50	1.71
	30.00	38.49	75.59	0.00	0.0686	11.93	524.8	408.82	0.0478	325.0	5.851	11.14	4.44	1.72
	31.01	38.50	75.54	0.00	0.0686	11.92	524.7	408.99	0.0477	322.6	5.807	11.07	4.33	1.71
	32.00	38.50	75.59	0.00	0.0686	11.92	524.5	408.55	0.0481	325.9	5.867	11.17	4.48	1.71
	33.01	38.47	75.59	0.00	0.0686	11.93	525.0	408.97	0.0477	323.4	5.821	11.08	4.36	1.71
	34.01	38.47	75.57	-0.00	0.0686	11.93	525.1	409.18	0.0479	323.7	5.826	11.10	4.38	1.71
	35.01	38.48	75.59	0.00	0.0686	11.93	524.8	408.76	0.0483	327.5	5.895	11.22	4.54	1.72
	36.01	38.50	75.59	0.00	0.0686	11.93	524.9	408.86	0.0481	327.8	5.900	11.23	4.56	1.72
	37.00	38.52	75.59	0.00	0.0684	11.88	522.9	407.36	0.0476	323.2	5.817	11.08	4.36	1.71
	38.02	38.56	75.59	0.00	0.0685	11.91	524.3	408.47	0.0477	323.3	5.820	11.08	4.37	1.71
	39.02	38.55	75.57	0.00	0.0685	11.91	524.2	408.57	0.0480	326.9	5.884	11.21	4.52	1.71
	40.01	38.55	75.62	0.00	0.0684	11.89	523.3	407.60	0.0484	328.5	5.913	11.26	4.59	1.71
	41.00	38.55	75.59	0.00	0.0684	11.88	522.9	407.40	0.0486	330.7	5.952	11.34	4.69	1.72
	42.01	38.55	75.57	0.00	0.0684	11.89	523.1	407.70	0.0486	332.1	5.978	11.39	4.75	1.72
	43.01	38.51	75.54	-0.00	0.0684	11.89	523.3	407.94	0.0488	332.5	5.985	11.40	4.76	1.71
	44.01	38.51	75.59	0.00	0.0684	11.89	523.3	407.66	0.0490	334.8	6.026	11.47	4.86	1.71
	45.01	38.52	75.62	-0.00	0.0684	11.88	522.9	407.24	0.0492	336.4	6.056	11.53	4.93	1.71
	46.00	38.51	75.59	0.00	0.0683	11.85	521.6	406.31	0.0488	332.9	5.992	11.41	4.78	1.71
	47.02	38.52	75.59	0.00	0.0683	11.87	522.5	407.05	0.0489	335.3	6.035	11.49	4.88	1.72
	48.03	38.52	75.57	-0.00	0.0682	11.84	521.2	406.17	0.0485	331.1	5.960	11.35	4.71	1.72
	49.02	38.48	75.59	0.00	0.0682	11.84	520.9	405.78	0.0488	332.6	5.987	11.40	4.77	1.71
	50.01	38.52	75.59	0.00	0.0682	11.86	521.7	406.44	0.0489	335.3	6.035	11.49	4.88	1.72
	51.03	38.48	75.59	-0.00	0.0682	11.85	521.5	406.25	0.0491	336.8	6.062	11.54	4.95	1.71
	52.09	38.56	75.62	0.00	0.0683	11.85	521.6	406.24	0.0492	336.9	6.065	11.55	4.96	1.72
	53.02	38.54	75.59	0.00	0.0681	11.83	520.5	405.54	0.0489	334.8	6.026	11.48	4.86	1.72
	54.02	38.51	75.57	0.00	0.0681	11.83	520.6	405.72	0.0489	334.8	6.026	11.48	4.86	1.72
	55.02	38.56	75.59	0.00	0.0681	11.83	520.6	405.60	0.0487	334.8	6.026	11.48	4.87	1.72
	56.03	38.57	75.59	-0.00	0.0681	11.81	519.8	405.02	0.0491	334.2	6.015	11.46	4.84	1.72
	57.00	38.51	75.57	0.00	0.0680	11.83	520.4	405.52	0.0493	336.3	6.053	11.53	4.93	1.71
	58.02	38.55	75.54	0.00	0.0680	11.81	519.4	404.99	0.0491	336.2	6.051	11.53	4.92	1.72
	59.02	38.57	75.59	0.00	0.0681	11.82	520.2	405.33	0.0493	338.5	6.093	11.61	5.02	1.72
	60.01	38.51	75.59	0.00	0.0681	11.82	520.3	405.32	0.0493	338.7	6.097	11.61	5.03	1.72
	61.01	38.61	75.57	-0.00	0.0681	11.81	519.8	405.24	0.0490	334.8	6.026	11.48	4.87	1.72
	62.01	38.57	75.62	0.00	0.0681	11.82	519.9	404.95	0.0497	340.1	6.121	11.65	5.09	1.72
	63.01	38.54	75.59	0.00	0.0681	11.83	520.3	405.39	0.0498	341.0	6.138	11.69	5.13	1.72
	64.01	38.54	75.62	0.00	0.0681	11.82	520.2	405.11	0.0498	341.4	6.146	11.70	5.15	1.72
	65.02	38.57	75.57	-0.00	0.0681	11.81	519.6	404.98	0.0497	342.2	6.160	11.74	5.18	1.72
	66.00	38.57	75.57	0.00	0.0681	11.82	520.2	405.43	0.0498	342.6	6.167	11.75	5.20	1.72
	67.00	38.59	75.57	0.00	0.0681	11.82	520.2	405.51	0.0498	343.1	6.176	11.77	5.22	1.72
	68.08	38.56	75.59	0.00	0.0681	11.82	520.2	405.33	0.0499	343.1	6.176	11.76	5.22	1.72
	69.00	38.57	75.59	0.00	0.0681	11.81	519.8	404.98	0.0503	344.6	6.203	11.81	5.28	1.72
	70.01	38.53	75.54	0.00	0.0681	11.81	519.5	404.98	0.0502	345.7	6.222	11.86	5.32	1.72
	71.01	38.57	75.57	-0.00	0.0681	11.82	519.9	405.24	0.0500	344.5	6.201	11.81	5.28	1.72
	72.01	38.51	75.57	0.00	0.0681	11.81	519.7	404.99	0.0501	345.1	6.211	11.83	5.30	1.72
	73.01	38.56	75.62	-0.00	0.0681	11.81	519.5	404.65	0.0502	345.8	6.225	11.85	5.33	1.72
	74.01	38.54	75.57	0.00	0.0680	11.79	518.7	404.29	0.0505	346.5	6.237	11.88	5.36	1.72
	74.99	38.51	75.57	0.00	0.0681	11.81	519.5	404.87	0.0504	347.1	6.247	11.90	5.38	1.72
	76.02	38.57	75.62	0.00	0.0681	11.81	519.6	404.69	0.0505	348.6	6.275	11.95	5.45	1.72
	77.02	38.55	75.59	0.00	0.0680	11.80	519.0	404.38	0.0505	349.4	6.290	11.98	5.48	1.72
	78.02	38.54	75.62	0.00	0.0680	11.78	518.4	403.74	0.0506	349.7	6.294	11.98	5.49	1.72
	79.09	38.57	75.57	-0.00	0.0680	11.80	519.0	404.54	0.0506	350.8	6.315	12.03	5.54	1.72
	80.01	38.57	75.59	0.00	0.0680	11.80	519.4	404.71	0.0509	351.9	6.334	12.07	5.58	1.72
	81.01	38.54	75.59	0.00	0.0680	11.79	518.6	404.02	0.0509	351.7	6.331	12.06	5.57	1.72
	82.01	38.55	75.59	0.00	0.0680	11.81	519.5	404.74	0.0509	352.9	6.352	12.10	5.62	1.72
	83.02	38.57	75.59	-0.00	0.0681	11.81	519.9	405.06	0.0511	354.3	6.377	12.15	5.68	1.72
	84.02	38.54	75.59	-0.00	0.0679	11.78	518.2	403.70	0.0510	353.4	6.361	12.11	5.64	1.72
	85.00	38.56	75.59	0.00	0.0679	11.78	518.1	403.68	0.0509	353.3	6.360	12.11	5.64	1.72
	86.02	38.56	75.62	-0.00	0.0680	11.79	518.6	403.93	0.0511	353.8	6.368	12.12	5.66	1.72
	87.02	38.59	75.57	-0.00	0.0679	11.78	518.1	403.88	0.0508	353.0	6.355	12.11	5.63	1.72
	88.03	38.63	75.57	-0.00	0.0679	11.78	518.4	404.17	0.0511	354.6	6.382	12.16	5.69	1.72
	89.00	38.55	75.59	0.00	0.0679	11.76	517.6	403.29	0.0510	352.2	6.339	12.07	5.59	1.72
	90.01	38.59	75.59	0.00	0.0679	11.77	517.7	403.45	0.0509	353.9	6.370	12.13	5.66	1.72
	91.01	38.58	75.57	-0.00	0.0680	11.78	518.3	404.00	0.0511	353.9	6.370	12.14	5.66	1.72
	92.01	38.64	75.59	0.00	0.0679	11.77	518.0	403.69	0.0510	352.7	6.348	12.09	5.62	1.72
	93.01	38.62	75.62	0.00	0.0679	11.79	518.7	404.10	0.0512	356.2	6.411	12.21	5.76	1.72
	94.02	38.58	75.57	-0.00	0.0680	11.79	518.6	404.22	0.0511	354.9	6.388	12.17	5.70	1.72
	95.00	38.62	75.59	0.00	0.0679	11.77	517.8	403.54	0.0506	351.6	6.329	12.06	5.57	1.72
	96.00	38.61	75.59	0.00	0.0679	11.76	517.3	403.09	0.0508	351.1	6.320	12.04	5.55	1.72
	97.00	38.64	75.57	0.00	0.0678	11.76	517.6	403.53	0.0509	352.7	6.349	12.10	5.62	1.72
	98.02	38.64	75.62	-0.00	0.0679	11.77	517.9	403.49	0.0514	356.5	6.416	12.22	5.77	1.72
	99.01	38.64	75.59	-0.00	0.0679	11.78	518.2	403.83	0.0512	356.1	6.410	12.21	5.76	1.72
	100.01	38.61	75.57	-0.00	0.0678	11.75	517.2	403.15	0.0514	357.4	6.434	12.26	5.81	1.72
	101.01	38.63	75.59	-0.00	0.0677	11.75	517.2	403.04	0.0515	359.0	6.462	12.31	5.87	1.72
	102.09	38.61	75.59	-0.00	0.0678	11.75	516.9	402.79	0.0517	359.2	6.465	12.31	5.88	1.72
	103.01	38.68	75.59	-0.00	0.0679	11.77	517.7	403.50	0.0518	360.8	6.494	12.37	5.95	1.72
	104.01	38.67	75.59	0.00	0.0679	11.78	518.2	403.87	0.0521	361.9	6.513	12.41	5.99	1.72
	104.99	38.67	75.57	0.00	0.0679	11.78	518.1	403.98	0.0519	363.3	6.539	12.46	6.04	1.72
	106.03	38.68	75.59	0.00	0.0678	11.75	517.0	402.97	0.0517	359.7	6.474	12.34	5.90	1.72
	107.02	38.65	75.59	0.00	0.0679	11.76	517.4	403.26	0.0519	362.2	6.519	12.42	6.00	1.72
	108.03	38.64	75.59	0.00	0.0679	11.77	518.0	403.70	0.0523	365.9	6.585	12.55	6.15	1.72
	109.01	38.63	75.59	-0.00	0.0678	11.76	517.5	403.27	0.0523	365.1	6.573	12.52	6.12	1.72
	110.03	38.63	75.59	-0.00	0.0678	11.76	517.6	403.42	0.0523	366.5	6.598	12.57	6.17	1.72
	111.09	38.58	75.57	-0.00	0.0679	11.77	518.0	403.77	0.0525	368.4	6.631	12.63	6.24	1.72
	112.02	38.64	75.57	-0.00	0.0679	11.78	518.2	404.01	0.0526	368.5	6.633	12.64	6.25	1.72
	113.01	38.58	75.59	0.00	0.0679	11.77	518.0	403.63	0.0526	368.5	6.633	12.63	6.25	1.72
	114.02	38.63	75.59	-0.00	0.0678	11.76	517.6	403.42	0.0522	364.9	6.568	12.51	6.11	1.72
	115.02	38.68	75.57	-0.00	0.0679	11.77	517.8	403.75	0.0528	370.6	6.670	12.71	6.33	1.72
	116.02	38.62	75.59	0.00	0.0679	11.78	518.2	403.85	0.0526	368.9	6.639	12.65	6.26	1.72
	117.00	38.71	75.59	0.00	0.0679	11.78	518.2	403.95	0.0524	368.2	6.627	12.63	6.24	1.73
	118.01	38.71	75.59	0.00	0.0679	11.78	518.5	404.18	0.0525	368.6	6.635	12.64	6.26	1.72
	119.03	38.73	75.59	0.00	0.0679	11.78	518.4	404.16	0.0524	367.0	6.607	12.59	6.20	1.72
	120.01	38.68	75.59	0.00	0.0678	11.76	517.2	403.17	0.0523	365.2	6.574	12.53	6.12	1.72
	121.01	38.65	75.57	0.00	0.0677	11.74	516.7	402.82	0.0516	362.6	6.528	12.44	6.02	1.72
