Jul 22 2015 at 14:50:35
Frequency: 1.00Hz.
CO2
Zero:  Value:0.95  Date:18 Mar 2005	 at 07:22:33	
Span:  Value:1.00  Date:18 Mar 2005	 at 07:25:09	
H2O
Zero:  Value:0.71  Date:18 Mar 2005	 at 07:52:31	
Span:  Value:0.99  Date:18 Mar 2005	 at 11:44:01	
	Relative Time	Temperature	Pressure	Aux Input	CO2 Absorptance	CO2 mmol/m3	CO2 mg/m3	CO2 umol/mol	H2O Absorptance	H2O mmol/m3	H2O g/m3	H2O mmol/mol	H2O(°C)	Cooler Voltage
	0.20	35.16	75.62	0.00	0.0676	11.70	515.0	396.73	0.0470	315.4	5.677	10.69	3.86	1.83
	1.23	35.19	75.62	-0.00	0.0675	11.72	515.6	397.27	0.0468	315.6	5.682	10.70	3.87	1.83
	2.21	35.16	75.62	-0.00	0.0674	11.68	514.1	396.03	0.0467	315.3	5.675	10.69	3.85	1.83
	3.21	35.18	75.65	0.00	0.0673	11.67	513.6	395.56	0.0467	315.3	5.675	10.68	3.85	1.83
	4.21	35.19	75.65	0.00	0.0674	11.68	514.0	395.86	0.0469	315.4	5.677	10.69	3.86	1.83
	5.21	35.14	75.62	0.00	0.0673	11.64	512.4	394.68	0.0471	318.9	5.741	10.81	4.01	1.83
	6.21	35.13	75.65	0.00	0.0674	11.63	511.8	394.13	0.0471	318.3	5.730	10.79	3.99	1.83
	7.21	35.10	75.62	0.00	0.0674	11.67	513.5	395.51	0.0469	315.9	5.687	10.71	3.88	1.83
	8.21	35.05	75.62	0.00	0.0674	11.65	512.5	394.71	0.0468	315.1	5.671	10.68	3.84	1.83
	9.22	35.06	75.65	-0.00	0.0674	11.65	512.8	394.76	0.0468	316.5	5.696	10.72	3.90	1.83
	10.23	35.04	75.65	-0.00	0.0674	11.66	513.0	394.88	0.0469	316.4	5.696	10.72	3.90	1.83
	11.23	34.98	75.59	-0.00	0.0673	11.65	512.6	394.84	0.0468	315.1	5.671	10.68	3.83	1.83
	12.25	34.96	75.62	0.00	0.0673	11.63	511.8	394.02	0.0467	313.6	5.645	10.62	3.77	1.83
	13.23	34.95	75.65	-0.00	0.0673	11.63	511.7	393.78	0.0467	313.8	5.649	10.63	3.78	1.83
	14.23	34.93	75.62	0.00	0.0672	11.65	512.6	394.58	0.0466	315.3	5.675	10.68	3.84	1.83
	15.22	34.92	75.65	0.00	0.0672	11.64	512.1	394.08	0.0467	315.2	5.673	10.67	3.83	1.83
	16.24	34.91	75.65	-0.00	0.0673	11.63	511.6	393.70	0.0469	315.8	5.684	10.69	3.86	1.83
	17.22	34.89	75.62	0.00	0.0673	11.63	511.8	393.91	0.0469	315.5	5.679	10.68	3.85	1.83
	18.22	34.87	75.62	0.00	0.0672	11.63	511.5	393.71	0.0468	315.2	5.674	10.68	3.84	1.83
	19.23	34.78	75.62	-0.00	0.0672	11.61	510.7	392.98	0.0467	314.4	5.659	10.64	3.79	1.83
	20.23	34.84	75.62	-0.00	0.0672	11.62	511.4	393.59	0.0466	314.7	5.664	10.66	3.81	1.84
	21.23	34.82	75.62	-0.00	0.0672	11.62	511.1	393.32	0.0467	314.1	5.653	10.63	3.78	1.83
	22.29	34.84	75.62	0.00	0.0672	11.63	511.5	393.68	0.0468	315.4	5.678	10.68	3.84	1.83
	23.21	34.88	75.62	0.00	0.0673	11.62	511.5	393.68	0.0468	315.0	5.670	10.67	3.83	1.83
	24.23	34.84	75.59	-0.00	0.0673	11.62	511.3	393.65	0.0468	315.1	5.671	10.67	3.83	1.83
	25.23	34.84	75.62	-0.00	0.0672	11.62	511.3	393.53	0.0467	314.5	5.661	10.65	3.80	1.83
	26.24	34.84	75.62	-0.00	0.0672	11.63	511.7	393.82	0.0467	314.8	5.666	10.66	3.81	1.84
	27.22	34.82	75.65	-0.00	0.0672	11.62	511.3	393.30	0.0467	314.1	5.654	10.63	3.78	1.83
	28.24	34.77	75.62	-0.00	0.0672	11.61	510.8	393.02	0.0467	314.1	5.655	10.64	3.78	1.83
	29.20	34.80	75.59	0.00	0.0671	11.60	510.5	392.93	0.0467	314.5	5.660	10.65	3.80	1.83
	30.22	34.80	75.59	0.00	0.0671	11.59	510.1	392.67	0.0467	314.0	5.651	10.63	3.77	1.83
	31.20	34.82	75.65	0.00	0.0671	11.59	510.1	392.39	0.0467	313.9	5.650	10.62	3.77	1.83
	32.21	34.84	75.62	0.00	0.0670	11.59	510.1	392.61	0.0468	315.4	5.676	10.68	3.84	1.83
	33.21	34.89	75.59	0.00	0.0671	11.59	510.0	392.69	0.0470	316.4	5.696	10.72	3.89	1.83
	34.21	34.83	75.62	0.00	0.0671	11.59	509.8	392.35	0.0469	316.0	5.688	10.70	3.87	1.83
	35.21	34.86	75.62	0.00	0.0671	11.59	509.9	392.47	0.0469	315.8	5.685	10.69	3.86	1.83
	36.22	34.89	75.62	-0.00	0.0671	11.59	510.0	392.56	0.0473	317.3	5.711	10.75	3.93	1.83
	37.21	34.86	75.62	0.00	0.0670	11.59	510.1	392.61	0.0474	319.9	5.758	10.83	4.04	1.84
	38.22	34.90	75.62	-0.00	0.0671	11.59	509.8	392.43	0.0480	326.2	5.872	11.05	4.32	1.83
	39.22	34.86	75.62	-0.00	0.0670	11.57	509.3	391.97	0.0479	326.0	5.869	11.04	4.32	1.83
	40.22	34.81	75.59	-0.00	0.0669	11.57	509.0	391.83	0.0478	324.3	5.837	10.98	4.24	1.83
	41.22	34.87	75.65	-0.00	0.0669	11.57	509.3	391.84	0.0479	324.5	5.841	10.98	4.25	1.83
	42.21	34.81	75.62	0.00	0.0669	11.57	509.1	391.74	0.0478	324.0	5.831	10.97	4.22	1.83
	43.21	34.79	75.62	0.00	0.0670	11.56	508.8	391.50	0.0479	325.3	5.855	11.01	4.28	1.84
	44.30	34.82	75.62	-0.00	0.0669	11.56	508.8	391.55	0.0480	325.4	5.857	11.02	4.28	1.83
	45.24	34.82	75.65	0.00	0.0669	11.56	508.9	391.45	0.0484	329.9	5.938	11.17	4.48	1.83
	46.30	34.82	75.62	0.00	0.0669	11.56	508.7	391.47	0.0482	328.4	5.911	11.12	4.42	1.83
	47.20	34.84	75.59	0.00	0.0669	11.55	508.4	391.40	0.0482	328.2	5.907	11.12	4.41	1.83
	48.22	34.84	75.59	0.00	0.0669	11.55	508.4	391.40	0.0485	329.3	5.928	11.16	4.46	1.83
	49.22	34.84	75.65	0.00	0.0669	11.55	508.1	390.92	0.0486	330.7	5.953	11.19	4.52	1.84
	50.22	34.84	75.65	0.00	0.0668	11.55	508.0	390.83	0.0487	332.3	5.982	11.25	4.59	1.83
	51.23	34.84	75.65	0.00	0.0669	11.55	508.3	391.05	0.0493	337.4	6.073	11.42	4.80	1.84
	52.23	34.86	75.65	0.00	0.0669	11.56	508.4	391.18	0.0490	335.9	6.046	11.37	4.74	1.83
	53.30	34.84	75.59	-0.00	0.0669	11.56	508.7	391.65	0.0487	332.3	5.981	11.26	4.58	1.83
	54.21	34.84	75.62	0.00	0.0669	11.55	508.2	391.11	0.0489	333.9	6.011	11.31	4.66	1.84
	55.22	34.88	75.65	0.00	0.0669	11.55	508.1	390.97	0.0492	336.8	6.062	11.40	4.78	1.84
	56.22	34.89	75.62	-0.00	0.0669	11.55	508.3	391.21	0.0492	337.5	6.075	11.43	4.81	1.84
	57.22	34.86	75.62	0.00	0.0669	11.55	508.3	391.20	0.0495	339.2	6.105	11.49	4.88	1.84
	58.20	34.88	75.62	0.00	0.0670	11.55	508.4	391.28	0.0493	338.4	6.091	11.46	4.85	1.84
	59.22	34.86	75.62	0.00	0.0669	11.55	508.2	391.15	0.0494	338.1	6.086	11.45	4.83	1.84
	60.22	34.83	75.65	-0.00	0.0668	11.55	508.1	390.90	0.0493	338.2	6.088	11.45	4.84	1.84
	61.21	34.94	75.62	0.00	0.0670	11.55	508.2	391.27	0.0493	338.1	6.086	11.45	4.84	1.84
	62.21	34.91	75.62	0.00	0.0669	11.55	508.1	391.10	0.0494	338.1	6.085	11.45	4.84	1.83
	63.21	34.90	75.59	0.00	0.0669	11.55	508.1	391.27	0.0494	338.5	6.092	11.47	4.85	1.84
	64.21	34.92	75.59	0.00	0.0668	11.55	508.3	391.44	0.0494	338.6	6.094	11.47	4.86	1.84
	65.21	34.92	75.59	0.00	0.0669	11.55	508.2	391.31	0.0495	339.4	6.110	11.50	4.89	1.84
	66.22	34.97	75.65	-0.00	0.0669	11.55	508.1	391.08	0.0495	340.0	6.120	11.51	4.92	1.84
	67.22	34.97	75.67	0.00	0.0668	11.55	508.1	390.92	0.0495	340.3	6.125	11.52	4.93	1.84
	68.22	34.94	75.62	0.00	0.0669	11.54	508.0	391.06	0.0495	340.2	6.124	11.52	4.93	1.84
	69.23	34.95	75.62	0.00	0.0668	11.54	507.7	390.88	0.0495	339.1	6.104	11.49	4.88	1.84
	70.22	34.95	75.65	0.00	0.0668	11.53	507.4	390.53	0.0503	344.1	6.194	11.65	5.09	1.84
	71.23	34.97	75.59	0.00	0.0668	11.53	507.1	390.59	0.0510	352.8	6.351	11.96	5.45	1.84
	72.23	34.96	75.59	-0.00	0.0667	11.53	507.3	390.74	0.0517	359.7	6.475	12.19	5.73	1.84
	73.23	34.96	75.59	0.00	0.0668	11.54	507.7	391.00	0.0520	363.0	6.535	12.30	5.86	1.84
	74.21	34.97	75.65	0.00	0.0669	11.53	507.5	390.60	0.0520	364.3	6.557	12.34	5.91	1.84
	75.24	34.97	75.62	-0.00	0.0669	11.55	508.1	391.18	0.0517	360.2	6.483	12.20	5.75	1.84
	76.21	34.97	75.59	0.00	0.0668	11.55	508.0	391.25	0.0510	355.7	6.403	12.05	5.57	1.84
	77.24	34.97	75.62	-0.00	0.0668	11.53	507.5	390.76	0.0500	344.7	6.205	11.68	5.12	1.84
	78.22	34.97	75.62	0.00	0.0669	11.54	507.8	390.93	0.0503	346.5	6.237	11.74	5.19	1.84
	79.22	34.95	75.62	0.00	0.0668	11.53	507.3	390.59	0.0503	347.0	6.246	11.75	5.21	1.84
	80.22	34.93	75.59	-0.00	0.0668	11.53	507.3	390.68	0.0506	349.1	6.283	11.83	5.30	1.84
	81.23	34.93	75.59	-0.00	0.0669	11.53	507.2	390.58	0.0504	348.1	6.266	11.80	5.26	1.84
	82.23	34.89	75.67	-0.00	0.0669	11.53	507.3	390.17	0.0508	350.7	6.313	11.87	5.36	1.84
	83.21	34.87	75.62	0.00	0.0669	11.53	507.5	390.60	0.0509	352.7	6.348	11.94	5.44	1.84
	84.21	34.89	75.62	0.00	0.0669	11.54	507.9	390.92	0.0511	354.7	6.385	12.01	5.52	1.84
	85.22	34.89	75.67	0.00	0.0669	11.54	507.6	390.45	0.0514	356.3	6.414	12.06	5.59	1.84
	86.24	34.89	75.62	-0.00	0.0668	11.53	507.3	390.49	0.0514	357.1	6.428	12.09	5.62	1.84
	87.22	34.88	75.62	0.00	0.0667	11.52	506.8	390.09	0.0512	355.3	6.396	12.03	5.55	1.84
	88.20	34.89	75.65	0.00	0.0668	11.52	507.0	390.09	0.0513	355.9	6.407	12.05	5.57	1.84
	89.30	34.87	75.65	-0.00	0.0668	11.52	507.1	390.16	0.0511	355.6	6.401	12.04	5.56	1.84
	90.23	34.87	75.65	-0.00	0.0667	11.52	506.7	389.84	0.0512	355.5	6.399	12.04	5.56	1.84
	91.23	34.79	75.62	-0.00	0.0668	11.52	507.0	390.10	0.0514	356.4	6.415	12.07	5.59	1.84
	92.23	34.82	75.62	-0.00	0.0668	11.53	507.3	390.41	0.0513	357.0	6.427	12.09	5.62	1.84
	93.23	34.87	75.65	-0.00	0.0668	11.53	507.4	390.40	0.0513	356.2	6.412	12.06	5.58	1.84
	94.21	34.84	75.62	0.00	0.0668	11.53	507.4	390.50	0.0510	354.0	6.373	11.99	5.50	1.84
	95.22	34.89	75.59	-0.00	0.0668	11.52	506.7	390.13	0.0509	352.7	6.349	11.95	5.44	1.84
	96.22	34.90	75.57	0.00	0.0668	11.52	506.7	390.28	0.0509	353.2	6.357	11.97	5.46	1.84
	97.22	34.93	75.62	0.00	0.0667	11.52	506.9	390.22	0.0509	352.7	6.348	11.95	5.44	1.84
	98.22	34.95	75.62	0.00	0.0668	11.53	507.2	390.46	0.0510	353.8	6.369	11.99	5.49	1.84
	99.20	34.94	75.59	0.00	0.0668	11.53	507.3	390.66	0.0511	354.6	6.383	12.02	5.52	1.84
	100.29	35.00	75.62	0.00	0.0668	11.53	507.1	390.48	0.0511	354.9	6.388	12.02	5.54	1.84
	101.20	35.02	75.62	0.00	0.0667	11.51	506.7	390.14	0.0504	348.7	6.276	11.81	5.28	1.84
	102.23	35.03	75.62	0.00	0.0667	11.53	507.3	390.66	0.0506	350.1	6.302	11.86	5.34	1.84
	103.22	34.99	75.59	-0.00	0.0669	11.53	507.2	390.65	0.0507	349.6	6.293	11.85	5.32	1.84
	104.24	34.96	75.59	0.00	0.0668	11.53	507.4	390.82	0.0507	351.2	6.322	11.90	5.39	1.84
	105.22	35.01	75.65	0.00	0.0668	11.52	507.0	390.23	0.0506	348.9	6.281	11.82	5.29	1.84
	106.24	35.02	75.65	-0.00	0.0668	11.53	507.3	390.48	0.0507	350.6	6.310	11.87	5.36	1.84
	107.30	35.05	75.65	-0.00	0.0667	11.52	506.9	390.21	0.0506	350.4	6.308	11.87	5.36	1.84
	108.22	35.04	75.59	0.00	0.0667	11.51	506.3	390.05	0.0507	351.3	6.323	11.91	5.39	1.84
	109.22	35.01	75.67	0.00	0.0667	11.51	506.6	389.84	0.0507	351.1	6.320	11.89	5.38	1.84
	110.21	34.96	75.62	0.00	0.0668	11.51	506.6	390.00	0.0507	351.1	6.319	11.89	5.38	1.84
	111.21	35.00	75.62	0.00	0.0667	11.51	506.6	390.07	0.0508	351.0	6.317	11.89	5.38	1.84
	112.23	34.96	75.67	-0.00	0.0668	11.51	506.6	389.76	0.0507	351.6	6.329	11.90	5.40	1.84
	113.21	34.95	75.62	0.00	0.0668	11.52	507.0	390.31	0.0508	351.7	6.331	11.91	5.41	1.84
	114.22	34.92	75.65	0.00	0.0667	11.51	506.5	389.77	0.0512	354.7	6.385	12.01	5.53	1.84
	115.21	34.97	75.65	0.00	0.0666	11.50	505.8	389.32	0.0512	355.7	6.402	12.04	5.57	1.84
	116.22	35.00	75.62	0.00	0.0667	11.50	506.2	389.76	0.0511	354.8	6.386	12.02	5.53	1.84
	117.22	35.01	75.65	-0.00	0.0667	11.50	506.1	389.56	0.0512	354.3	6.377	12.00	5.51	1.84
	118.23	35.01	75.62	-0.00	0.0667	11.51	506.2	389.81	0.0510	354.6	6.382	12.01	5.52	1.85
	119.20	35.00	75.65	0.00	0.0667	11.51	506.3	389.69	0.0512	355.0	6.390	12.02	5.54	1.84
	120.23	35.00	75.57	0.00	0.0667	11.50	506.1	389.94	0.0510	354.1	6.374	12.01	5.51	1.84
	121.21	35.02	75.59	-0.00	0.0666	11.51	506.3	390.01	0.0509	352.9	6.352	11.96	5.46	1.84
	122.23	35.04	75.65	0.00	0.0667	11.51	506.5	389.88	0.0509	352.1	6.338	11.93	5.43	1.84
	123.21	35.05	75.62	0.00	0.0666	11.51	506.2	389.87	0.0508	351.3	6.323	11.90	5.39	1.84
