Jul 22 2015 at 15:28:06
Frequency: 1.00Hz.
CO2
Zero:  Value:0.95  Date:18 Mar 2005	 at 07:22:33	
Span:  Value:1.00  Date:18 Mar 2005	 at 07:25:09	
H2O
Zero:  Value:0.71  Date:18 Mar 2005	 at 07:52:31	
Span:  Value:0.99  Date:18 Mar 2005	 at 11:44:01	
	Relative Time	Temperature	Pressure	Aux Input	CO2 Absorptance	CO2 mmol/m3	CO2 mg/m3	CO2 umol/mol	H2O Absorptance	H2O mmol/m3	H2O g/m3	H2O mmol/mol	H2O(°C)	Cooler Voltage
	0.01	37.22	75.59	0.00	0.0685	11.91	524.3	406.72	0.0511	357.4	6.433	12.20	5.74	1.82
	1.03	37.22	75.62	0.00	0.0685	11.88	522.8	405.47	0.0506	348.6	6.274	11.89	5.38	1.82
	2.04	37.17	75.62	-0.00	0.0683	11.85	521.4	404.33	0.0507	350.2	6.303	11.95	5.45	1.82
	3.09	37.18	75.62	0.00	0.0682	11.84	520.8	403.84	0.0505	349.1	6.284	11.91	5.40	1.82
	4.01	37.19	75.59	0.00	0.0681	11.82	520.1	403.41	0.0503	346.7	6.241	11.83	5.30	1.82
	5.02	37.11	75.57	0.00	0.0680	11.78	518.5	402.21	0.0499	344.3	6.197	11.75	5.20	1.82
	6.01	37.18	75.62	0.00	0.0679	11.78	518.2	401.79	0.0498	342.2	6.159	11.67	5.11	1.82
	7.02	37.22	75.62	0.00	0.0680	11.78	518.1	401.82	0.0499	343.8	6.188	11.73	5.18	1.82
	8.00	37.22	75.59	0.00	0.0679	11.78	518.5	402.27	0.0500	343.8	6.188	11.74	5.18	1.82
	9.03	37.21	75.62	-0.00	0.0680	11.78	518.4	402.02	0.0498	342.2	6.160	11.68	5.12	1.82
	10.02	37.25	75.62	-0.00	0.0678	11.75	516.9	400.94	0.0498	343.2	6.177	11.71	5.16	1.82
	11.03	37.27	75.59	-0.00	0.0678	11.77	517.7	401.72	0.0500	344.9	6.209	11.78	5.23	1.82
	12.01	37.29	75.65	-0.00	0.0677	11.75	517.2	401.05	0.0499	344.1	6.194	11.74	5.20	1.82
	13.03	37.29	75.62	-0.00	0.0679	11.77	517.7	401.57	0.0499	343.0	6.174	11.71	5.15	1.82
	14.02	37.31	75.62	-0.00	0.0678	11.73	516.2	400.45	0.0502	344.0	6.192	11.74	5.20	1.82
	15.01	37.28	75.62	0.00	0.0677	11.74	516.5	400.63	0.0501	345.4	6.218	11.79	5.25	1.82
	16.02	37.32	75.62	0.00	0.0678	11.74	516.8	400.90	0.0501	345.5	6.218	11.79	5.26	1.82
	17.00	37.30	75.59	0.00	0.0677	11.75	517.1	401.26	0.0508	350.1	6.301	11.95	5.45	1.82
	18.02	37.35	75.62	0.00	0.0678	11.77	518.0	401.90	0.0508	354.2	6.376	12.09	5.62	1.82
	19.02	37.36	75.62	-0.00	0.0678	11.73	516.3	400.62	0.0507	350.9	6.316	11.98	5.48	1.82
	20.03	37.36	75.62	0.00	0.0677	11.74	516.6	400.83	0.0507	352.4	6.343	12.03	5.54	1.82
	21.01	37.39	75.59	0.00	0.0677	11.74	516.8	401.13	0.0495	344.0	6.192	11.75	5.20	1.82
	22.03	37.43	75.62	0.00	0.0678	11.76	517.5	401.62	0.0499	346.5	6.237	11.83	5.31	1.82
	23.03	37.40	75.59	0.00	0.0677	11.74	516.7	401.12	0.0502	346.4	6.235	11.83	5.30	1.82
	24.04	37.40	75.62	-0.00	0.0676	11.70	514.8	399.46	0.0502	347.2	6.250	11.86	5.34	1.82
	25.10	37.40	75.62	-0.00	0.0677	11.74	516.5	400.81	0.0497	340.9	6.135	11.64	5.07	1.82
	26.02	37.42	75.59	0.00	0.0677	11.73	516.2	400.70	0.0498	342.4	6.163	11.69	5.13	1.82
	27.02	37.42	75.59	0.00	0.0678	11.74	516.6	401.05	0.0497	341.4	6.145	11.66	5.09	1.82
	28.02	37.40	75.62	0.00	0.0678	11.74	516.4	400.69	0.0497	341.3	6.143	11.65	5.09	1.82
	29.03	37.45	75.62	-0.00	0.0677	11.73	516.1	400.58	0.0501	343.5	6.183	11.73	5.18	1.82
	30.03	37.43	75.62	-0.00	0.0675	11.70	514.8	399.50	0.0501	344.0	6.191	11.75	5.20	1.82
	31.01	37.43	75.62	0.00	0.0676	11.71	515.4	399.97	0.0501	343.7	6.186	11.74	5.19	1.82
	32.03	37.40	75.59	-0.00	0.0677	11.72	515.6	400.24	0.0507	349.7	6.295	11.94	5.44	1.82
	33.01	37.41	75.62	0.00	0.0677	11.72	515.8	400.28	0.0506	350.6	6.311	11.97	5.48	1.82
	34.02	37.42	75.59	0.00	0.0677	11.71	515.4	400.09	0.0505	347.4	6.252	11.86	5.34	1.82
	35.02	37.39	75.62	-0.00	0.0676	11.71	515.3	399.88	0.0499	346.3	6.233	11.82	5.29	1.82
	36.02	37.40	75.65	0.00	0.0676	11.71	515.2	399.65	0.0496	340.0	6.121	11.61	5.03	1.82
	37.00	37.42	75.62	0.00	0.0676	11.69	514.5	399.27	0.0500	343.7	6.187	11.74	5.19	1.82
	38.03	37.39	75.59	0.00	0.0675	11.70	514.8	399.62	0.0495	340.8	6.134	11.64	5.06	1.82
	39.02	37.43	75.59	-0.00	0.0675	11.69	514.3	399.30	0.0495	339.9	6.118	11.61	5.03	1.82
	40.01	37.39	75.59	0.00	0.0676	11.71	515.1	399.80	0.0497	342.9	6.172	11.71	5.15	1.82
	41.01	37.45	75.62	-0.00	0.0676	11.71	515.1	399.76	0.0494	338.3	6.090	11.55	4.96	1.82
	42.01	37.47	75.59	0.00	0.0676	11.70	514.9	399.78	0.0498	342.2	6.159	11.69	5.13	1.82
	43.01	37.43	75.62	0.00	0.0675	11.69	514.4	399.23	0.0499	343.6	6.185	11.73	5.19	1.82
	44.01	37.43	75.62	0.00	0.0676	11.69	514.4	399.21	0.0501	344.7	6.205	11.77	5.23	1.83
	45.04	37.43	75.62	0.00	0.0677	11.71	515.3	399.88	0.0505	348.4	6.271	11.90	5.38	1.82
	46.02	37.45	75.62	0.00	0.0677	11.72	515.8	400.29	0.0506	350.0	6.299	11.95	5.45	1.82
	47.02	37.45	75.59	0.00	0.0676	11.72	515.5	400.26	0.0505	349.6	6.292	11.94	5.43	1.82
	48.03	37.45	75.59	-0.00	0.0676	11.71	515.2	400.01	0.0505	349.0	6.282	11.92	5.41	1.82
	49.02	37.47	75.65	0.00	0.0676	11.71	515.1	399.67	0.0505	348.3	6.270	11.89	5.38	1.82
	50.09	37.46	75.62	0.00	0.0676	11.71	515.3	399.96	0.0506	350.9	6.316	11.98	5.49	1.83
	51.03	37.47	75.62	-0.00	0.0675	11.70	514.7	399.51	0.0502	347.0	6.246	11.85	5.33	1.82
	52.03	37.47	75.59	-0.00	0.0677	11.72	515.8	400.50	0.0507	350.6	6.311	11.98	5.48	1.82
	53.02	37.45	75.59	-0.00	0.0676	11.71	515.1	399.91	0.0505	348.8	6.278	11.91	5.40	1.82
	54.10	37.45	75.62	-0.00	0.0675	11.70	514.7	399.50	0.0503	346.6	6.239	11.84	5.31	1.82
	55.02	37.46	75.62	-0.00	0.0676	11.70	514.9	399.66	0.0507	349.9	6.299	11.95	5.45	1.82
	56.03	37.42	75.62	-0.00	0.0676	11.70	514.7	399.44	0.0509	352.7	6.348	12.04	5.56	1.83
	57.10	37.47	75.62	0.00	0.0676	11.71	515.3	399.99	0.0507	351.1	6.319	11.99	5.50	1.82
	58.03	37.48	75.62	-0.00	0.0676	11.72	515.5	400.15	0.0508	351.5	6.327	12.00	5.51	1.82
	59.03	37.50	75.62	-0.00	0.0677	11.71	515.4	400.07	0.0508	351.8	6.333	12.02	5.53	1.82
	60.01	37.47	75.62	0.00	0.0677	11.72	515.6	400.22	0.0509	351.7	6.331	12.01	5.52	1.82
	61.03	37.47	75.62	0.00	0.0678	11.73	516.1	400.59	0.0512	355.3	6.396	12.14	5.67	1.83
	62.01	37.50	75.62	0.00	0.0677	11.73	516.0	400.52	0.0511	354.8	6.387	12.12	5.65	1.82
	63.02	37.49	75.62	0.00	0.0677	11.72	515.8	400.33	0.0510	353.7	6.366	12.08	5.60	1.83
	64.02	37.51	75.62	-0.00	0.0677	11.72	515.7	400.29	0.0510	353.2	6.357	12.06	5.58	1.82
	65.04	37.46	75.62	-0.00	0.0677	11.73	516.1	400.53	0.0512	355.5	6.400	12.14	5.68	1.82
	66.02	37.48	75.62	0.00	0.0677	11.72	515.8	400.32	0.0512	354.9	6.388	12.12	5.65	1.82
	67.03	37.49	75.62	-0.00	0.0677	11.72	515.7	400.32	0.0510	353.8	6.368	12.08	5.61	1.83
	68.08	37.50	75.62	0.00	0.0677	11.73	515.9	400.48	0.0512	355.1	6.392	12.13	5.66	1.82
	69.03	37.47	75.62	-0.00	0.0677	11.73	516.2	400.64	0.0513	356.2	6.412	12.16	5.71	1.83
	70.01	37.48	75.59	-0.00	0.0677	11.73	516.2	400.84	0.0512	355.6	6.402	12.15	5.68	1.82
	71.03	37.47	75.59	0.00	0.0677	11.73	516.3	400.89	0.0514	356.4	6.416	12.18	5.72	1.83
	72.09	37.45	75.67	-0.00	0.0676	11.72	515.9	400.12	0.0510	355.0	6.391	12.12	5.66	1.83
	73.01	37.50	75.59	0.00	0.0677	11.73	516.0	400.70	0.0510	354.3	6.378	12.11	5.63	1.83
	74.02	37.46	75.62	-0.00	0.0676	11.72	515.6	400.14	0.0512	354.2	6.375	12.09	5.62	1.83
	75.00	37.49	75.62	0.00	0.0678	11.73	516.3	400.77	0.0519	359.7	6.475	12.28	5.85	1.83
	76.00	37.50	75.62	0.00	0.0677	11.72	515.7	400.33	0.0514	358.2	6.447	12.23	5.79	1.82
	77.02	37.50	75.62	0.00	0.0677	11.73	516.1	400.58	0.0514	357.9	6.443	12.22	5.78	1.83
	78.02	37.50	75.62	0.00	0.0677	11.73	516.0	400.51	0.0516	358.5	6.453	12.24	5.80	1.83
	79.03	37.46	75.65	0.00	0.0677	11.72	515.8	400.20	0.0514	356.7	6.420	12.18	5.72	1.83
	80.03	37.46	75.59	-0.00	0.0677	11.74	516.4	400.93	0.0518	360.4	6.487	12.31	5.88	1.83
	81.04	37.50	75.62	-0.00	0.0678	11.74	516.7	401.11	0.0519	362.8	6.530	12.39	5.97	1.83
	82.01	37.47	75.62	0.00	0.0677	11.74	516.6	401.01	0.0517	361.0	6.498	12.33	5.90	1.83
	83.04	37.44	75.59	-0.00	0.0677	11.73	516.1	400.69	0.0517	359.8	6.476	12.29	5.85	1.83
	84.01	37.50	75.59	0.00	0.0678	11.75	516.9	401.35	0.0523	365.3	6.575	12.48	6.07	1.83
	85.02	37.49	75.65	0.00	0.0678	11.75	516.9	401.11	0.0523	365.9	6.586	12.49	6.09	1.83
	86.02	37.49	75.59	-0.00	0.0677	11.74	516.6	401.15	0.0518	361.8	6.513	12.36	5.93	1.83
	87.02	37.52	75.59	0.00	0.0678	11.75	516.8	401.32	0.0518	361.1	6.500	12.34	5.91	1.83
	88.02	37.52	75.59	0.00	0.0678	11.74	516.7	401.27	0.0517	360.3	6.486	12.31	5.87	1.83
	89.03	37.54	75.62	0.00	0.0678	11.75	516.9	401.30	0.0520	363.1	6.536	12.40	5.99	1.83
	90.01	37.54	75.62	0.00	0.0678	11.75	517.1	401.45	0.0523	364.7	6.565	12.46	6.05	1.83
	91.01	37.53	75.62	0.00	0.0678	11.76	517.4	401.68	0.0523	365.6	6.581	12.49	6.09	1.83
	92.04	37.56	75.62	-0.00	0.0679	11.77	517.7	401.90	0.0525	367.1	6.607	12.54	6.14	1.83
	93.02	37.52	75.62	-0.00	0.0679	11.77	517.7	401.89	0.0526	367.8	6.620	12.56	6.17	1.83
	94.04	37.57	75.62	0.00	0.0679	11.76	517.5	401.78	0.0525	366.7	6.600	12.53	6.13	1.83
	95.02	37.59	75.62	0.00	0.0678	11.75	517.1	401.48	0.0525	367.5	6.615	12.55	6.16	1.83
	96.03	37.57	75.62	-0.00	0.0679	11.77	517.8	402.03	0.0527	370.3	6.666	12.65	6.27	1.83
	97.02	37.65	75.65	-0.00	0.0678	11.77	517.8	402.02	0.0529	371.1	6.681	12.68	6.31	1.83
	98.03	37.66	75.62	-0.00	0.0679	11.78	518.1	402.37	0.0529	371.9	6.694	12.71	6.34	1.83
	99.01	37.57	75.59	0.00	0.0679	11.77	518.0	402.29	0.0526	368.9	6.641	12.61	6.22	1.83
	100.03	37.59	75.65	0.00	0.0680	11.79	518.7	402.60	0.0530	372.1	6.698	12.71	6.34	1.83
	101.01	37.60	75.59	0.00	0.0680	11.78	518.2	402.48	0.0527	369.9	6.659	12.64	6.26	1.83
	102.01	37.59	75.59	0.00	0.0679	11.78	518.3	402.61	0.0528	371.0	6.679	12.68	6.30	1.83
	103.01	37.61	75.70	0.00	0.0679	11.78	518.5	402.23	0.0529	372.5	6.706	12.72	6.36	1.83
	104.02	37.59	75.62	-0.00	0.0679	11.77	517.9	402.13	0.0527	369.7	6.655	12.63	6.25	1.83
	105.02	37.61	75.59	-0.00	0.0679	11.77	517.8	402.23	0.0529	370.8	6.674	12.67	6.29	1.83
	106.02	37.61	75.62	-0.00	0.0679	11.78	518.2	402.40	0.0530	372.0	6.696	12.71	6.34	1.83
	107.03	37.61	75.62	-0.00	0.0680	11.80	519.1	403.10	0.0532	374.2	6.736	12.79	6.43	1.83
	108.03	37.59	75.62	0.00	0.0678	11.77	517.7	402.00	0.0527	371.0	6.678	12.68	6.30	1.83
	109.01	37.58	75.59	0.00	0.0679	11.77	517.9	402.24	0.0527	370.1	6.662	12.65	6.26	1.83
	110.04	37.59	75.59	-0.00	0.0680	11.79	518.7	402.90	0.0530	372.9	6.712	12.74	6.37	1.83
	111.01	37.59	75.62	0.00	0.0680	11.78	518.5	402.59	0.0528	371.0	6.678	12.67	6.30	1.83
	112.02	37.59	75.59	0.00	0.0679	11.79	518.6	402.82	0.0530	372.6	6.706	12.73	6.36	1.83
	113.01	37.56	75.62	0.00	0.0680	11.79	518.6	402.59	0.0530	372.3	6.701	12.72	6.35	1.83
	114.02	37.61	75.62	0.00	0.0679	11.79	519.0	402.97	0.0529	373.6	6.724	12.76	6.40	1.83
	115.02	37.59	75.62	-0.00	0.0680	11.79	518.6	402.64	0.0531	372.9	6.712	12.74	6.37	1.83
	116.02	37.60	75.59	0.00	0.0680	11.80	519.2	403.31	0.0532	374.7	6.744	12.81	6.44	1.83
	117.02	37.61	75.62	0.00	0.0680	11.80	519.3	403.22	0.0531	374.0	6.732	12.78	6.42	1.83
	118.02	37.64	75.59	0.00	0.0680	11.80	519.2	403.33	0.0532	373.9	6.730	12.78	6.42	1.83
	119.01	37.58	75.62	0.00	0.0681	11.81	519.7	403.48	0.0533	375.8	6.764	12.84	6.49	1.83
	120.03	37.62	75.62	-0.00	0.0681	11.81	519.8	403.61	0.0533	376.6	6.778	12.87	6.52	1.83
	121.01	37.60	75.62	0.00	0.0681	11.80	519.0	402.99	0.0534	375.6	6.761	12.83	6.48	1.83
	122.01	37.60	75.59	0.00	0.0681	11.81	519.6	403.58	0.0535	377.6	6.796	12.90	6.56	1.83
	123.01	37.62	75.62	0.00	0.0680	11.80	519.1	403.10	0.0532	375.1	6.752	12.82	6.46	1.83
	124.02	37.64	75.62	-0.00	0.0680	11.79	518.9	402.96	0.0535	376.3	6.774	12.86	6.51	1.83
