Jul 22 2015 at 12:53:02
Frequency: 1.00Hz.
CO2
Zero:  Value:0.95  Date:18 Mar 2005	 at 07:22:33	
Span:  Value:1.00  Date:18 Mar 2005	 at 07:25:09	
H2O
Zero:  Value:0.71  Date:18 Mar 2005	 at 07:52:31	
Span:  Value:0.99  Date:18 Mar 2005	 at 11:44:01	
	Relative Time	Temperature	Pressure	Aux Input	CO2 Absorptance	CO2 mmol/m3	CO2 mg/m3	CO2 umol/mol	H2O Absorptance	H2O mmol/m3	H2O g/m3	H2O mmol/mol	H2O(°C)	Cooler Voltage
	0.53	36.90	73.51	0.00	0.0675	11.78	518.3	413.07	0.0534	381.2	6.862	13.37	6.66	1.69
	1.54	36.96	73.48	0.00	0.0683	11.93	525.1	418.73	0.0534	379.3	6.827	13.31	6.59	1.69
	2.53	36.87	73.48	0.00	0.0682	11.95	525.6	418.99	0.0534	380.7	6.853	13.35	6.64	1.69
	3.54	36.90	73.46	0.00	0.0681	11.92	524.7	418.44	0.0533	379.3	6.827	13.31	6.59	1.69
	4.54	36.94	73.46	0.00	0.0674	11.72	515.8	411.45	0.0531	378.3	6.810	13.28	6.55	1.69
	5.54	36.93	73.46	0.00	0.0675	11.79	518.8	413.83	0.0531	377.9	6.801	13.26	6.53	1.69
	6.55	36.92	73.48	0.00	0.0676	11.79	518.5	413.44	0.0531	377.7	6.798	13.25	6.53	1.69
	7.55	36.92	73.46	0.00	0.0675	11.80	519.2	414.09	0.0532	378.6	6.815	13.29	6.56	1.69
	8.55	36.92	73.48	0.00	0.0673	11.73	516.0	411.45	0.0532	378.4	6.812	13.28	6.56	1.69
	9.55	36.93	73.48	0.00	0.0673	11.77	517.8	412.85	0.0532	378.8	6.819	13.29	6.57	1.69
	10.55	36.89	73.48	-0.00	0.0673	11.73	516.2	411.52	0.0532	378.9	6.821	13.29	6.57	1.69
	11.54	36.92	73.48	0.00	0.0672	11.72	515.6	411.11	0.0531	377.7	6.799	13.25	6.53	1.69
	12.54	36.93	73.48	0.00	0.0668	11.62	511.3	407.64	0.0532	379.1	6.823	13.30	6.58	1.69
	13.54	36.92	73.48	0.00	0.0668	11.63	511.8	408.07	0.0533	379.9	6.837	13.33	6.61	1.69
	14.55	36.95	73.48	-0.00	0.0668	11.63	511.5	407.89	0.0535	380.6	6.852	13.35	6.64	1.69
	15.54	36.94	73.48	0.00	0.0668	11.63	511.8	408.07	0.0534	380.7	6.852	13.36	6.64	1.69
	16.55	36.98	73.48	-0.00	0.0668	11.63	511.6	407.95	0.0535	381.4	6.866	13.38	6.67	1.69
	17.54	36.97	73.51	-0.00	0.0666	11.59	510.1	406.66	0.0540	385.9	6.945	13.53	6.84	1.69
	18.55	36.93	73.48	-0.00	0.0668	11.60	510.3	406.90	0.0538	385.2	6.933	13.51	6.81	1.69
	19.53	36.94	73.43	0.00	0.0667	11.61	510.8	407.54	0.0537	384.1	6.913	13.48	6.77	1.69
	20.56	36.95	73.48	-0.00	0.0669	11.64	512.0	408.23	0.0537	383.2	6.898	13.45	6.74	1.69
	21.56	36.97	73.48	0.00	0.0668	11.63	511.7	408.05	0.0539	385.0	6.930	13.51	6.81	1.69
	22.56	36.97	73.48	-0.00	0.0666	11.58	509.4	406.22	0.0540	386.5	6.956	13.56	6.86	1.69
	23.56	36.98	73.48	-0.00	0.0667	11.60	510.2	406.88	0.0540	387.3	6.971	13.59	6.90	1.69
	24.54	36.99	73.48	0.00	0.0667	11.59	509.9	406.65	0.0547	391.0	7.038	13.72	7.04	1.69
	25.55	36.97	73.48	0.00	0.0666	11.58	509.7	406.44	0.0545	390.2	7.023	13.69	7.00	1.69
	26.54	37.02	73.46	0.00	0.0665	11.56	508.5	405.71	0.0548	394.0	7.092	13.83	7.15	1.69
	27.55	37.02	73.48	0.00	0.0666	11.59	509.9	406.67	0.0549	395.3	7.115	13.87	7.19	1.69
	28.53	36.98	73.48	0.00	0.0667	11.59	510.0	406.69	0.0551	397.4	7.154	13.94	7.27	1.69
	29.55	37.02	73.48	0.00	0.0666	11.58	509.7	406.55	0.0551	396.3	7.134	13.91	7.23	1.69
	30.53	37.02	73.46	0.00	0.0666	11.58	509.4	406.43	0.0548	394.4	7.100	13.85	7.16	1.69
	31.56	37.05	73.46	-0.00	0.0664	11.55	508.3	405.55	0.0559	401.3	7.223	14.09	7.42	1.69
	32.53	37.04	73.48	0.00	0.0662	11.50	506.1	403.68	0.0566	409.4	7.368	14.37	7.71	1.69
	33.54	37.04	73.48	0.00	0.0664	11.52	506.9	404.32	0.0565	412.0	7.416	14.46	7.80	1.69
	34.54	37.04	73.48	-0.00	0.0665	11.55	508.3	405.40	0.0564	409.6	7.372	14.37	7.72	1.69
	35.54	37.03	73.48	0.00	0.0664	11.52	507.1	404.43	0.0561	406.6	7.320	14.27	7.61	1.69
	36.55	37.03	73.48	-0.00	0.0663	11.52	507.0	404.42	0.0564	405.8	7.305	14.24	7.58	1.69
	37.55	37.04	73.48	0.00	0.0663	11.52	507.0	404.43	0.0560	406.7	7.320	14.27	7.61	1.69
	38.55	37.03	73.46	-0.00	0.0663	11.52	507.1	404.58	0.0559	406.4	7.316	14.27	7.60	1.69
	39.56	37.01	73.48	0.00	0.0663	11.52	506.9	404.26	0.0562	408.1	7.346	14.32	7.66	1.69
	40.55	37.04	73.46	0.00	0.0663	11.51	506.5	404.17	0.0578	419.8	7.556	14.74	8.08	1.69
	41.54	37.03	73.43	0.00	0.0664	11.52	506.7	404.46	0.0578	427.4	7.692	15.01	8.34	1.69
	42.56	37.01	73.51	-0.00	0.0663	11.52	507.0	404.17	0.0573	417.7	7.518	14.65	8.00	1.69
	43.54	37.06	73.48	0.00	0.0662	11.51	506.4	403.96	0.0574	420.8	7.574	14.77	8.11	1.69
	44.54	37.06	73.46	0.00	0.0660	11.45	504.0	402.16	0.0570	417.8	7.520	14.67	8.01	1.69
	45.54	37.06	73.48	0.00	0.0660	11.45	503.9	401.93	0.0571	417.5	7.515	14.65	8.00	1.69
	46.53	37.06	73.48	0.00	0.0661	11.46	504.2	402.18	0.0571	419.4	7.548	14.72	8.06	1.69
	47.55	37.06	73.48	-0.00	0.0661	11.46	504.2	402.22	0.0575	422.1	7.598	14.81	8.16	1.69
	48.53	37.06	73.46	0.00	0.0660	11.44	503.3	401.60	0.0576	427.2	7.690	15.00	8.34	1.69
	49.53	37.06	73.48	0.00	0.0661	11.47	504.7	402.58	0.0566	409.6	7.372	14.37	7.72	1.69
	50.53	37.06	73.48	0.00	0.0661	11.45	503.9	401.98	0.0570	415.6	7.480	14.59	7.93	1.69
	51.56	37.06	73.46	-0.00	0.0659	11.42	502.7	401.10	0.0576	424.1	7.634	14.89	8.23	1.69
	52.54	37.06	73.48	0.00	0.0658	11.41	502.2	400.58	0.0581	426.6	7.679	14.97	8.32	1.69
	53.56	37.08	73.51	0.00	0.0660	11.44	503.2	401.31	0.0586	430.5	7.748	15.10	8.45	1.69
	54.54	37.15	73.53	0.00	0.0658	11.39	501.0	399.46	0.0594	442.1	7.958	15.51	8.85	1.69
	55.55	37.04	73.46	0.00	0.0658	11.40	501.5	400.15	0.0599	448.5	8.073	15.75	9.06	1.69
	56.53	37.07	73.48	0.00	0.0658	11.40	501.5	400.07	0.0589	438.5	7.892	15.39	8.72	1.69
	57.55	37.03	73.48	0.00	0.0658	11.41	501.9	400.33	0.0596	442.3	7.961	15.52	8.85	1.69
	58.53	37.06	73.46	0.00	0.0657	11.39	501.1	399.89	0.0598	444.4	7.999	15.60	8.92	1.69
	59.55	37.08	73.48	0.00	0.0658	11.40	501.5	400.04	0.0606	450.9	8.116	15.83	9.14	1.69
	60.53	37.11	73.48	0.00	0.0657	11.36	499.8	398.72	0.0587	434.4	7.819	15.25	8.58	1.69
	61.54	37.07	73.46	0.00	0.0657	11.39	501.1	399.85	0.0603	453.7	8.166	15.93	9.23	1.69
	62.60	37.07	73.46	0.00	0.0657	11.38	500.7	399.58	0.0600	447.8	8.061	15.72	9.03	1.69
	63.55	37.11	73.51	-0.00	0.0656	11.34	498.9	397.86	0.0600	444.0	7.992	15.58	8.91	1.69
	64.62	37.11	73.48	0.00	0.0657	11.38	500.6	399.37	0.0630	480.6	8.650	16.87	10.09	1.69
	65.57	37.11	73.48	-0.00	0.0656	11.37	500.5	399.26	0.0621	470.7	8.473	16.52	9.78	1.69
	66.61	37.13	73.48	0.00	0.0657	11.36	499.9	398.88	0.0615	463.9	8.350	16.28	9.56	1.69
	67.55	37.13	73.48	0.00	0.0656	11.36	499.9	398.87	0.0612	457.8	8.241	16.07	9.36	1.69
	68.55	37.12	73.48	-0.00	0.0656	11.34	499.1	398.22	0.0602	451.3	8.123	15.84	9.15	1.69
	69.56	37.13	73.48	0.00	0.0655	11.34	499.0	398.17	0.0607	453.8	8.168	15.93	9.23	1.69
	70.54	37.10	73.46	0.00	0.0656	11.35	499.4	398.57	0.0607	456.0	8.208	16.01	9.30	1.69
	71.56	37.12	73.43	-0.00	0.0656	11.36	499.8	399.01	0.0608	455.2	8.194	15.99	9.28	1.69
	72.54	37.15	73.48	0.00	0.0655	11.34	498.9	398.11	0.0607	454.1	8.173	15.94	9.24	1.69
	73.52	37.12	73.48	0.00	0.0655	11.33	498.6	397.79	0.0613	456.4	8.215	16.02	9.32	1.69
	74.55	37.13	73.48	-0.00	0.0655	11.33	498.6	397.83	0.0613	461.5	8.307	16.20	9.48	1.70
	75.52	37.21	73.48	0.00	0.0655	11.33	498.6	397.91	0.0611	459.1	8.265	16.12	9.41	1.69
	76.55	37.13	73.46	0.00	0.0655	11.33	498.7	398.03	0.0613	461.3	8.304	16.20	9.48	1.69
	77.55	37.12	73.48	-0.00	0.0655	11.33	498.3	397.57	0.0621	467.8	8.420	16.42	9.68	1.69
	78.55	37.15	73.48	0.00	0.0654	11.31	497.8	397.21	0.0621	467.9	8.422	16.43	9.69	1.70
	79.55	37.15	73.48	0.00	0.0654	11.31	497.8	397.23	0.0619	468.3	8.429	16.44	9.70	1.70
	80.54	37.15	73.48	0.00	0.0654	11.30	497.3	396.82	0.0624	473.3	8.519	16.62	9.86	1.70
	81.54	37.15	73.46	-0.00	0.0654	11.31	497.6	397.20	0.0618	468.8	8.438	16.46	9.72	1.69
	82.54	37.15	73.46	0.00	0.0654	11.30	497.0	396.69	0.0619	467.5	8.416	16.42	9.68	1.70
	83.54	37.15	73.46	0.00	0.0654	11.30	497.3	396.92	0.0618	462.4	8.322	16.24	9.51	1.69
	84.54	37.12	73.48	0.00	0.0654	11.30	497.1	396.61	0.0608	458.4	8.252	16.09	9.38	1.70
	85.54	37.15	73.48	0.00	0.0653	11.28	496.5	396.14	0.0616	462.2	8.320	16.23	9.51	1.70
	86.55	37.17	73.46	0.00	0.0653	11.29	496.7	396.51	0.0615	465.1	8.371	16.33	9.60	1.70
	87.55	37.20	73.48	-0.00	0.0653	11.28	496.5	396.24	0.0618	465.8	8.385	16.36	9.63	1.70
	88.55	37.19	73.46	-0.00	0.0653	11.28	496.5	396.32	0.0617	464.3	8.357	16.31	9.58	1.70
	89.55	37.18	73.51	-0.00	0.0653	11.29	496.7	396.19	0.0618	465.8	8.384	16.35	9.62	1.70
	90.53	37.17	73.46	0.00	0.0653	11.28	496.3	396.16	0.0618	465.6	8.381	16.35	9.62	1.70
	91.56	37.16	73.48	-0.00	0.0653	11.28	496.5	396.18	0.0620	467.3	8.411	16.41	9.67	1.70
	92.54	37.18	73.48	0.00	0.0653	11.28	496.5	396.17	0.0625	476.8	8.582	16.74	9.97	1.70
	93.54	37.18	73.48	0.00	0.0652	11.27	496.1	395.86	0.0621	469.9	8.458	16.50	9.75	1.70
	94.61	37.23	73.48	0.00	0.0651	11.25	495.1	395.18	0.0640	487.2	8.770	17.11	10.30	1.70
	95.53	37.24	73.46	0.00	0.0652	11.28	496.2	396.15	0.0637	487.8	8.781	17.14	10.32	1.70
	96.55	37.19	73.46	0.00	0.0652	11.27	495.7	395.72	0.0633	481.9	8.675	16.93	10.13	1.70
	97.55	37.17	73.48	0.00	0.0651	11.26	495.4	395.30	0.0643	492.3	8.861	17.28	10.45	1.70
	98.55	37.20	73.46	0.00	0.0652	11.26	495.6	395.66	0.0639	491.2	8.842	17.25	10.42	1.70
	99.53	37.20	73.48	0.00	0.0650	11.23	494.2	394.35	0.0628	476.9	8.584	16.75	9.98	1.70
	100.62	37.19	73.48	0.00	0.0651	11.25	494.9	394.92	0.0628	476.5	8.577	16.73	9.96	1.70
	101.56	37.22	73.48	-0.00	0.0652	11.26	495.5	395.45	0.0625	474.6	8.543	16.67	9.91	1.70
	102.54	37.18	73.48	0.00	0.0652	11.26	495.5	395.36	0.0625	474.6	8.543	16.66	9.90	1.70
	103.54	37.20	73.48	0.00	0.0651	11.25	495.1	395.09	0.0630	478.9	8.619	16.81	10.04	1.70
	104.54	37.20	73.48	0.00	0.0651	11.25	495.0	395.04	0.0628	476.9	8.585	16.75	9.98	1.70
	105.53	37.22	73.48	0.00	0.0650	11.23	494.0	394.27	0.0629	477.7	8.599	16.78	10.00	1.70
	106.55	37.20	73.51	-0.00	0.0651	11.25	495.0	394.92	0.0630	478.5	8.613	16.80	10.03	1.70
	107.53	37.22	73.51	-0.00	0.0652	11.26	495.4	395.27	0.0629	478.5	8.613	16.80	10.03	1.70
	108.55	37.21	73.48	0.00	0.0651	11.26	495.4	395.36	0.0631	481.7	8.671	16.92	10.13	1.70
	109.54	37.19	73.48	0.00	0.0650	11.23	493.9	394.14	0.0626	474.8	8.546	16.67	9.91	1.70
	110.54	37.22	73.43	0.00	0.0651	11.24	494.6	394.98	0.0632	481.2	8.662	16.91	10.11	1.70
	111.54	37.22	73.48	-0.00	0.0650	11.23	494.2	394.43	0.0632	480.9	8.657	16.89	10.10	1.70
	112.56	37.24	73.46	-0.00	0.0651	11.24	494.7	395.00	0.0635	483.1	8.696	16.97	10.17	1.70
	113.54	37.24	73.48	0.00	0.0650	11.23	494.1	394.40	0.0635	483.7	8.707	16.99	10.19	1.70
	114.54	37.24	73.48	0.00	0.0651	11.24	494.7	394.84	0.0637	486.6	8.759	17.09	10.28	1.70
	115.55	37.22	73.48	-0.00	0.0649	11.20	493.0	393.45	0.0636	486.4	8.756	17.08	10.27	1.70
	116.53	37.24	73.43	0.00	0.0650	11.23	494.0	394.55	0.0639	490.1	8.821	17.22	10.39	1.70
	117.55	37.24	73.48	-0.00	0.0649	11.19	492.5	393.12	0.0637	486.2	8.752	17.08	10.27	1.70
	118.53	37.23	73.48	0.00	0.0650	11.21	493.0	393.49	0.0641	489.5	8.810	17.19	10.37	1.70
	119.54	37.23	73.48	0.00	0.0650	11.22	493.6	393.98	0.0641	490.9	8.836	17.24	10.41	1.70
	120.54	37.27	73.48	-0.00	0.0650	11.20	493.0	393.51	0.0640	489.5	8.812	17.19	10.37	1.70
	121.56	37.27	73.46	-0.00	0.0650	11.23	493.9	394.37	0.0641	492.1	8.858	17.29	10.45	1.70
	122.54	37.27	73.48	-0.00	0.0651	11.23	494.3	394.54	0.0644	494.5	8.901	17.37	10.52	1.70
	123.55	37.27	73.48	-0.00	0.0650	11.23	494.1	394.40	0.0644	493.9	8.891	17.35	10.50	1.70
	124.54	37.27	73.48	0.00	0.0650	11.23	493.9	394.24	0.0642	491.4	8.845	17.26	10.43	1.70
	125.53	37.27	73.48	0.00	0.0649	11.21	493.2	393.64	0.0640	490.5	8.828	17.23	10.40	1.70
	126.55	37.27	73.48	-0.00	0.0649	11.19	492.5	393.12	0.0640	489.8	8.817	17.20	10.38	1.70
	127.61	37.27	73.48	0.00	0.0650	11.22	493.7	394.04	0.0644	494.2	8.895	17.36	10.51	1.70
