Jul 22 2015 at 15:10:46
Frequency: 1.00Hz.
CO2
Zero:  Value:0.95  Date:18 Mar 2005	 at 07:22:33	
Span:  Value:1.00  Date:18 Mar 2005	 at 07:25:09	
H2O
Zero:  Value:0.71  Date:18 Mar 2005	 at 07:52:31	
Span:  Value:0.99  Date:18 Mar 2005	 at 11:44:01	
	Relative Time	Temperature	Pressure	Aux Input	CO2 Absorptance	CO2 mmol/m3	CO2 mg/m3	CO2 umol/mol	H2O Absorptance	H2O mmol/m3	H2O g/m3	H2O mmol/mol	H2O(°C)	Cooler Voltage
	0.34	35.94	75.59	0.00	0.0680	11.81	519.6	401.41	0.0442	292.8	5.270	9.95	2.84	1.82
	1.33	35.95	75.62	0.00	0.0679	11.79	518.9	400.81	0.0442	291.9	5.253	9.92	2.80	1.82
	2.34	35.98	75.57	-0.00	0.0680	11.78	518.4	400.72	0.0445	293.7	5.286	9.99	2.88	1.82
	3.34	35.96	75.59	-0.00	0.0679	11.76	517.4	399.75	0.0443	292.2	5.259	9.93	2.81	1.82
	4.35	35.98	75.62	-0.00	0.0678	11.77	518.0	400.12	0.0442	292.6	5.266	9.94	2.83	1.82
	5.35	35.98	75.65	-0.00	0.0679	11.79	518.7	400.54	0.0443	293.1	5.275	9.96	2.85	1.82
	6.35	36.00	75.62	-0.00	0.0680	11.80	519.0	400.94	0.0443	293.0	5.275	9.96	2.86	1.82
	7.32	35.98	75.62	0.00	0.0680	11.79	518.8	400.75	0.0442	292.4	5.263	9.94	2.82	1.82
	8.33	35.95	75.62	0.00	0.0680	11.79	518.7	400.60	0.0442	292.4	5.264	9.94	2.82	1.82
	9.35	36.03	75.59	-0.00	0.0679	11.76	517.6	400.04	0.0440	290.9	5.236	9.89	2.75	1.82
	10.34	36.00	75.62	-0.00	0.0678	11.75	516.8	399.23	0.0440	290.1	5.222	9.86	2.71	1.82
	11.34	36.00	75.59	0.00	0.0682	11.82	520.0	401.84	0.0443	292.1	5.257	9.93	2.81	1.82
	12.34	36.03	75.59	-0.00	0.0679	11.76	517.5	399.92	0.0441	290.5	5.229	9.88	2.73	1.82
	13.35	36.06	75.62	-0.00	0.0679	11.73	516.2	398.81	0.0441	289.8	5.217	9.85	2.70	1.82
	14.34	36.05	75.62	-0.00	0.0679	11.77	517.8	400.03	0.0441	291.6	5.250	9.91	2.79	1.82
	15.37	36.05	75.59	-0.00	0.0679	11.78	518.4	400.64	0.0442	292.1	5.257	9.93	2.81	1.82
	16.35	36.01	75.62	-0.00	0.0679	11.78	518.1	400.26	0.0441	291.4	5.245	9.90	2.77	1.82
	17.35	36.06	75.62	0.00	0.0677	11.74	516.8	399.28	0.0438	289.2	5.206	9.83	2.67	1.82
	18.35	36.07	75.59	0.00	0.0676	11.74	516.4	399.15	0.0437	288.1	5.186	9.80	2.62	1.82
	19.36	36.04	75.59	-0.00	0.0678	11.75	516.8	399.45	0.0438	289.2	5.205	9.83	2.67	1.82
	20.34	36.09	75.62	0.00	0.0678	11.76	517.3	399.73	0.0439	290.3	5.226	9.87	2.73	1.82
	21.34	36.09	75.62	0.00	0.0679	11.75	517.0	399.47	0.0441	290.3	5.225	9.87	2.73	1.82
	22.34	36.07	75.62	0.00	0.0678	11.76	517.3	399.71	0.0440	290.5	5.229	9.88	2.74	1.82
	23.35	36.08	75.65	0.00	0.0677	11.73	516.2	398.70	0.0440	289.8	5.216	9.85	2.70	1.82
	24.35	36.06	75.59	-0.00	0.0678	11.75	517.0	399.59	0.0440	291.0	5.237	9.90	2.76	1.82
	25.34	36.09	75.62	0.00	0.0677	11.74	516.5	399.12	0.0438	289.8	5.216	9.85	2.70	1.82
	26.33	36.05	75.62	0.00	0.0677	11.74	516.4	398.99	0.0437	288.8	5.199	9.82	2.65	1.82
	27.35	36.06	75.59	0.00	0.0675	11.70	514.7	397.84	0.0435	286.0	5.147	9.73	2.51	1.82
	28.33	36.09	75.59	0.00	0.0678	11.73	516.3	399.08	0.0440	290.1	5.221	9.87	2.71	1.82
	29.34	36.08	75.62	0.00	0.0676	11.71	515.2	398.10	0.0438	288.9	5.200	9.82	2.66	1.82
	30.34	36.09	75.65	-0.00	0.0676	11.71	515.4	398.12	0.0437	287.5	5.175	9.77	2.59	1.82
	31.34	36.12	75.59	0.00	0.0677	11.73	516.0	398.85	0.0436	288.0	5.184	9.80	2.62	1.82
	32.32	36.08	75.62	0.00	0.0676	11.71	515.4	398.22	0.0439	289.4	5.210	9.84	2.68	1.82
	33.34	36.12	75.62	0.00	0.0675	11.70	514.7	397.78	0.0438	289.0	5.202	9.83	2.66	1.82
	34.32	36.12	75.62	0.00	0.0676	11.72	515.7	398.51	0.0439	289.3	5.207	9.84	2.68	1.82
	35.33	36.08	75.62	0.00	0.0676	11.71	515.3	398.21	0.0439	288.9	5.201	9.82	2.66	1.82
	36.33	36.12	75.62	0.00	0.0677	11.72	515.5	398.37	0.0438	288.4	5.191	9.81	2.63	1.82
	37.33	36.08	75.62	0.00	0.0676	11.69	514.3	397.39	0.0438	288.1	5.185	9.79	2.62	1.82
	38.33	36.12	75.62	0.00	0.0676	11.71	515.1	398.02	0.0438	288.5	5.193	9.81	2.64	1.82
	39.34	36.06	75.62	0.00	0.0676	11.72	515.5	398.27	0.0438	288.9	5.201	9.82	2.66	1.82
	40.34	36.12	75.62	-0.00	0.0674	11.69	514.2	397.38	0.0438	288.5	5.193	9.81	2.64	1.82
	41.34	36.08	75.62	-0.00	0.0675	11.68	513.8	396.98	0.0438	288.6	5.195	9.81	2.65	1.82
	42.34	36.08	75.59	0.00	0.0675	11.68	514.0	397.28	0.0438	289.5	5.210	9.84	2.69	1.82
	43.41	36.10	75.62	0.00	0.0674	11.67	513.6	396.85	0.0438	289.0	5.201	9.82	2.66	1.82
	44.34	36.07	75.59	0.00	0.0674	11.67	513.6	396.99	0.0439	289.5	5.211	9.85	2.69	1.82
	45.35	36.05	75.59	-0.00	0.0675	11.67	513.4	396.77	0.0439	289.4	5.209	9.84	2.68	1.82
	46.33	36.05	75.59	0.00	0.0674	11.66	513.0	396.50	0.0437	287.9	5.182	9.79	2.61	1.82
	47.35	36.03	75.62	0.00	0.0676	11.71	515.4	398.16	0.0440	290.4	5.228	9.87	2.73	1.82
	48.34	36.02	75.62	0.00	0.0675	11.70	514.9	397.79	0.0439	289.8	5.217	9.85	2.70	1.82
	49.36	36.00	75.57	-0.00	0.0673	11.65	512.5	396.15	0.0436	287.4	5.174	9.78	2.58	1.82
	50.34	35.98	75.62	-0.00	0.0674	11.65	512.6	395.97	0.0437	288.0	5.184	9.79	2.61	1.82
	51.34	35.96	75.59	0.00	0.0672	11.63	511.8	395.45	0.0436	286.7	5.160	9.75	2.54	1.82
	52.34	35.97	75.59	-0.00	0.0673	11.65	512.7	396.15	0.0436	287.3	5.172	9.77	2.58	1.82
	53.35	35.93	75.59	-0.00	0.0673	11.65	512.8	396.14	0.0437	287.7	5.179	9.78	2.59	1.82
	54.34	35.98	75.59	-0.00	0.0671	11.60	510.5	394.44	0.0434	285.9	5.146	9.72	2.51	1.82
	55.35	35.98	75.59	-0.00	0.0672	11.63	511.8	395.49	0.0436	287.5	5.176	9.78	2.59	1.82
	56.33	35.96	75.62	0.00	0.0673	11.63	511.8	395.33	0.0437	287.7	5.179	9.78	2.59	1.82
	57.33	35.96	75.62	0.00	0.0673	11.63	511.6	395.15	0.0438	288.5	5.193	9.80	2.63	1.82
	58.42	35.90	75.54	-0.00	0.0673	11.64	512.0	395.77	0.0439	289.0	5.202	9.83	2.65	1.82
	59.33	35.84	75.62	0.00	0.0673	11.65	512.6	395.76	0.0441	291.4	5.245	9.90	2.77	1.83
	60.36	35.93	75.62	0.00	0.0673	11.65	512.8	396.02	0.0443	293.5	5.283	9.97	2.87	1.82
	61.32	35.95	75.62	0.00	0.0674	11.65	512.8	396.04	0.0442	291.6	5.250	9.91	2.78	1.82
	62.34	35.96	75.62	0.00	0.0672	11.63	511.8	395.32	0.0442	291.0	5.239	9.89	2.76	1.82
	63.34	35.98	75.59	-0.00	0.0672	11.63	511.6	395.33	0.0443	292.1	5.257	9.93	2.81	1.82
	64.35	36.00	75.59	-0.00	0.0671	11.60	510.3	394.37	0.0442	291.4	5.245	9.91	2.78	1.83
	65.33	35.97	75.62	0.00	0.0671	11.61	511.0	394.70	0.0443	293.0	5.275	9.96	2.85	1.83
	66.35	36.00	75.59	-0.00	0.0672	11.62	511.2	395.02	0.0450	298.5	5.373	10.15	3.12	1.83
	67.35	36.05	75.62	-0.00	0.0671	11.61	511.0	394.82	0.0452	301.6	5.429	10.25	3.26	1.82
	68.34	36.05	75.62	-0.00	0.0672	11.62	511.1	394.88	0.0451	300.5	5.409	10.21	3.21	1.83
	69.34	36.06	75.59	-0.00	0.0672	11.61	510.9	394.86	0.0454	301.4	5.424	10.25	3.25	1.83
	70.33	36.05	75.62	0.00	0.0670	11.58	509.4	393.57	0.0448	297.9	5.363	10.13	3.09	1.83
	71.34	36.03	75.62	0.00	0.0672	11.60	510.3	394.20	0.0451	299.9	5.399	10.20	3.18	1.83
	72.35	36.03	75.62	-0.00	0.0672	11.62	511.4	395.12	0.0452	300.9	5.416	10.23	3.23	1.83
	73.35	36.00	75.62	-0.00	0.0673	11.64	512.1	395.56	0.0455	303.0	5.454	10.30	3.33	1.83
	74.35	36.03	75.62	0.00	0.0673	11.63	511.8	395.38	0.0456	304.2	5.476	10.34	3.38	1.83
	75.33	36.07	75.59	0.00	0.0671	11.62	511.4	395.26	0.0455	303.9	5.470	10.34	3.37	1.83
	76.35	36.04	75.62	0.00	0.0671	11.59	509.8	393.85	0.0454	302.8	5.451	10.29	3.32	1.83
	77.33	36.08	75.62	0.00	0.0671	11.59	510.0	394.07	0.0455	303.9	5.471	10.33	3.37	1.83
	78.36	36.12	75.59	-0.00	0.0670	11.58	509.6	393.92	0.0458	306.5	5.516	10.42	3.49	1.83
	79.33	36.12	75.59	0.00	0.0670	11.60	510.5	394.62	0.0457	305.1	5.492	10.38	3.43	1.83
	80.34	36.13	75.59	0.00	0.0672	11.59	509.8	394.13	0.0459	306.6	5.520	10.43	3.50	1.83
	81.40	36.16	75.62	0.00	0.0673	11.61	510.7	394.68	0.0460	310.5	5.589	10.56	3.68	1.83
	82.34	36.20	75.59	0.00	0.0673	11.64	512.0	395.90	0.0459	307.6	5.537	10.47	3.55	1.83
	83.34	36.20	75.57	0.00	0.0672	11.63	511.7	395.83	0.0463	310.4	5.586	10.56	3.68	1.83
	84.33	36.20	75.59	0.00	0.0672	11.63	511.6	395.57	0.0462	311.3	5.604	10.59	3.72	1.83
	85.33	36.18	75.62	0.00	0.0672	11.63	511.5	395.36	0.0461	308.5	5.554	10.49	3.59	1.83
	86.35	36.17	75.62	0.00	0.0672	11.63	511.6	395.41	0.0464	311.3	5.604	10.59	3.72	1.83
	87.33	36.18	75.59	0.00	0.0673	11.63	511.7	395.62	0.0464	310.9	5.596	10.58	3.70	1.83
	88.33	36.18	75.62	0.00	0.0672	11.61	511.0	394.95	0.0454	303.8	5.469	10.33	3.37	1.83
	89.33	36.16	75.62	0.00	0.0672	11.62	511.5	395.33	0.0451	301.1	5.419	10.24	3.24	1.83
	90.40	36.18	75.62	0.00	0.0671	11.62	511.3	395.23	0.0454	301.6	5.430	10.26	3.27	1.83
	91.34	36.20	75.62	-0.00	0.0672	11.62	511.5	395.37	0.0454	302.8	5.450	10.30	3.33	1.83
	92.34	36.20	75.65	-0.00	0.0671	11.61	510.9	394.78	0.0455	303.4	5.460	10.31	3.35	1.83
	93.34	36.20	75.59	0.00	0.0671	11.60	510.2	394.53	0.0455	303.6	5.464	10.33	3.36	1.83
	94.41	36.17	75.62	-0.00	0.0672	11.61	510.7	394.71	0.0456	304.3	5.477	10.35	3.39	1.83
	95.32	36.18	75.59	0.00	0.0672	11.60	510.6	394.80	0.0458	306.3	5.514	10.42	3.49	1.83
	96.33	36.20	75.62	0.00	0.0671	11.59	510.0	394.20	0.0458	305.9	5.507	10.41	3.47	1.83
	97.31	36.18	75.62	0.00	0.0672	11.60	510.6	394.64	0.0458	306.3	5.513	10.42	3.49	1.83
	98.34	36.20	75.62	0.00	0.0671	11.60	510.3	394.48	0.0456	304.0	5.472	10.34	3.38	1.83
	99.42	36.20	75.62	0.00	0.0671	11.58	509.7	393.97	0.0453	301.6	5.428	10.26	3.27	1.83
	100.36	36.20	75.62	-0.00	0.0670	11.60	510.2	394.41	0.0455	304.2	5.475	10.35	3.39	1.83
	101.34	36.23	75.62	0.00	0.0671	11.60	510.4	394.56	0.0457	305.1	5.491	10.38	3.43	1.83
	102.34	36.22	75.62	0.00	0.0671	11.60	510.3	394.50	0.0458	306.3	5.514	10.42	3.49	1.83
	103.35	36.22	75.62	0.00	0.0671	11.59	510.2	394.38	0.0457	306.1	5.509	10.41	3.48	1.83
	104.35	36.22	75.57	-0.00	0.0671	11.59	510.2	394.64	0.0455	304.0	5.472	10.35	3.38	1.83
	105.36	36.16	75.62	-0.00	0.0670	11.57	508.9	393.32	0.0452	300.1	5.402	10.21	3.20	1.83
	106.35	36.24	75.59	-0.00	0.0671	11.58	509.5	394.03	0.0455	302.8	5.451	10.30	3.33	1.83
	107.34	36.22	75.62	0.00	0.0670	11.59	509.9	394.13	0.0455	303.3	5.459	10.32	3.35	1.83
	108.34	36.22	75.62	0.00	0.0670	11.58	509.5	393.82	0.0451	300.6	5.410	10.22	3.22	1.83
	109.36	36.23	75.59	-0.00	0.0670	11.59	510.1	394.46	0.0452	301.3	5.423	10.25	3.26	1.83
	110.34	36.19	75.62	0.00	0.0671	11.60	510.4	394.48	0.0456	303.2	5.457	10.31	3.34	1.83
	111.34	36.20	75.59	0.00	0.0671	11.60	510.4	394.69	0.0456	304.2	5.476	10.35	3.39	1.83
	112.34	36.23	75.59	0.00	0.0671	11.60	510.2	394.55	0.0456	304.5	5.481	10.36	3.41	1.83
	113.35	36.23	75.59	0.00	0.0671	11.60	510.4	394.70	0.0455	304.2	5.475	10.35	3.39	1.83
	114.33	36.25	75.59	0.00	0.0670	11.57	509.2	393.81	0.0454	302.9	5.452	10.31	3.33	1.83
	115.32	36.25	75.62	0.00	0.0670	11.58	509.6	393.95	0.0454	303.4	5.461	10.32	3.36	1.83
	116.35	36.21	75.65	0.00	0.0670	11.57	509.0	393.34	0.0456	303.4	5.461	10.31	3.35	1.83
	117.33	36.27	75.65	-0.00	0.0671	11.59	509.9	394.11	0.0457	305.1	5.492	10.38	3.44	1.84
	118.33	36.29	75.62	0.00	0.0670	11.58	509.5	393.98	0.0459	306.7	5.520	10.43	3.51	1.84
	119.34	36.21	75.57	0.00	0.0671	11.59	510.0	394.51	0.0458	307.2	5.530	10.46	3.53	1.84
	120.34	36.29	75.62	-0.00	0.0671	11.60	510.2	394.50	0.0458	306.9	5.524	10.44	3.52	1.84
	121.34	36.27	75.62	0.00	0.0671	11.58	509.6	394.00	0.0458	305.5	5.499	10.39	3.46	1.84
