Jul 22 2015 at 11:07:01
Frequency: 1.00Hz.
CO2
Zero:  Value:0.95  Date:18 Mar 2005	 at 07:22:33	
Span:  Value:1.00  Date:18 Mar 2005	 at 07:25:09	
H2O
Zero:  Value:0.71  Date:18 Mar 2005	 at 07:52:31	
Span:  Value:0.99  Date:18 Mar 2005	 at 11:44:01	
	Relative Time	Temperature	Pressure	Aux Input	CO2 Absorptance	CO2 mmol/m3	CO2 mg/m3	CO2 umol/mol	H2O Absorptance	H2O mmol/m3	H2O g/m3	H2O mmol/mol	H2O(°C)	Cooler Voltage
	1.00	31.62	73.51	0.00	0.0669	11.65	512.5	401.50	0.0725	577.4	10.394	19.90	12.59	1.70
	1.98	31.62	73.51	0.00	0.0670	11.64	512.1	401.15	0.0709	589.9	10.618	20.33	12.91	1.70
	3.00	31.61	73.56	0.00	0.0669	11.66	513.0	401.60	0.0713	565.5	10.179	19.48	12.27	1.70
	3.99	31.61	73.54	-0.00	0.0671	11.68	513.8	402.36	0.0704	565.6	10.181	19.49	12.27	1.70
	4.98	31.62	73.51	0.00	0.0671	11.67	513.6	402.32	0.0706	568.8	10.238	19.60	12.36	1.70
	5.99	31.58	73.54	0.00	0.0669	11.66	513.2	401.84	0.0700	558.1	10.045	19.23	12.07	1.70
	6.97	31.60	73.51	0.00	0.0671	11.68	514.1	402.73	0.0696	552.6	9.947	19.05	11.92	1.70
	7.99	31.53	73.54	0.00	0.0671	11.67	513.7	402.14	0.0694	549.8	9.897	18.94	11.84	1.71
	9.00	31.54	73.51	-0.00	0.0671	11.68	513.7	402.36	0.0692	546.2	9.832	18.82	11.74	1.70
	10.08	31.56	73.48	-0.00	0.0670	11.68	513.7	402.50	0.0692	547.6	9.856	18.88	11.78	1.70
	11.00	31.53	73.54	-0.00	0.0671	11.67	513.6	402.12	0.0692	548.5	9.873	18.89	11.80	1.70
	12.00	31.56	73.51	-0.00	0.0671	11.68	514.0	402.61	0.0690	545.1	9.811	18.78	11.71	1.70
	12.98	31.54	73.48	0.00	0.0671	11.69	514.4	403.00	0.0685	539.6	9.713	18.60	11.56	1.70
	13.98	31.56	73.51	0.00	0.0671	11.68	513.9	402.48	0.0685	541.4	9.745	18.66	11.61	1.71
	14.99	31.60	73.51	0.00	0.0672	11.69	514.4	402.97	0.0685	541.6	9.749	18.67	11.61	1.70
	15.99	31.49	73.54	0.00	0.0671	11.69	514.4	402.66	0.0683	537.5	9.676	18.52	11.50	1.70
	17.07	31.56	73.54	-0.00	0.0671	11.68	514.0	402.45	0.0688	544.8	9.806	18.77	11.70	1.70
	17.99	31.47	73.48	0.00	0.0668	11.64	512.1	401.14	0.0694	549.9	9.898	18.95	11.84	1.70
	19.00	31.56	73.51	0.00	0.0670	11.66	512.9	401.75	0.0696	552.8	9.951	19.05	11.92	1.70
	20.00	31.53	73.48	-0.00	0.0670	11.67	513.4	402.21	0.0698	557.5	10.034	19.22	12.05	1.71
	21.00	31.51	73.51	-0.00	0.0670	11.65	512.7	401.50	0.0700	560.5	10.089	19.31	12.13	1.70
	22.00	31.49	73.51	0.00	0.0669	11.64	512.2	401.06	0.0703	561.1	10.099	19.33	12.14	1.70
	23.00	31.51	73.51	-0.00	0.0671	11.67	513.7	402.29	0.0703	559.3	10.068	19.27	12.10	1.70
	24.07	31.49	73.51	-0.00	0.0670	11.67	513.6	402.23	0.0704	561.6	10.109	19.35	12.16	1.70
	24.98	31.53	73.54	0.00	0.0670	11.67	513.6	402.11	0.0705	564.6	10.163	19.45	12.24	1.71
	25.97	31.54	73.51	0.00	0.0670	11.66	513.0	401.78	0.0707	565.7	10.182	19.49	12.27	1.71
	26.97	31.51	73.48	0.00	0.0670	11.66	513.0	401.87	0.0708	563.7	10.147	19.43	12.22	1.70
	27.97	31.56	73.48	0.00	0.0669	11.64	512.4	401.45	0.0706	563.6	10.145	19.43	12.22	1.70
	28.98	31.56	73.54	-0.00	0.0669	11.65	512.4	401.21	0.0706	563.9	10.150	19.43	12.22	1.70
	29.98	31.58	73.51	0.00	0.0668	11.62	511.2	400.43	0.0705	562.1	10.118	19.37	12.18	1.70
	31.00	31.60	73.54	0.00	0.0669	11.66	513.1	401.80	0.0710	570.0	10.259	19.64	12.39	1.71
	32.00	31.60	73.54	-0.00	0.0669	11.65	512.4	401.24	0.0710	567.3	10.211	19.55	12.32	1.70
	32.99	31.57	73.54	0.00	0.0670	11.65	512.8	401.52	0.0713	572.6	10.308	19.73	12.46	1.70
	33.99	31.58	73.54	-0.00	0.0670	11.65	512.5	401.26	0.0713	570.2	10.263	19.64	12.39	1.70
	34.99	31.52	73.51	0.00	0.0669	11.64	512.2	401.11	0.0711	570.2	10.264	19.65	12.39	1.70
	35.99	31.56	73.54	0.00	0.0669	11.64	512.0	400.87	0.0713	571.3	10.284	19.68	12.42	1.70
	36.97	31.56	73.51	0.00	0.0669	11.64	512.4	401.30	0.0715	576.2	10.372	19.86	12.55	1.71
	38.06	31.54	73.51	-0.00	0.0669	11.65	512.5	401.38	0.0715	575.6	10.361	19.83	12.54	1.70
	38.98	31.48	73.48	0.00	0.0670	11.66	513.3	402.03	0.0716	576.3	10.374	19.86	12.55	1.70
	39.98	31.52	73.54	0.00	0.0670	11.66	513.2	401.74	0.0719	579.2	10.426	19.95	12.63	1.70
	40.98	31.51	73.53	-0.00	0.0668	11.63	511.8	400.64	0.0716	575.6	10.361	19.83	12.54	1.70
	41.98	31.51	73.56	0.00	0.0669	11.65	512.4	400.99	0.0722	581.9	10.475	20.04	12.70	1.71
	42.98	31.47	73.54	-0.00	0.0669	11.65	512.6	401.23	0.0719	581.3	10.464	20.02	12.68	1.70
	43.99	31.47	73.51	-0.00	0.0670	11.66	512.8	401.57	0.0721	583.1	10.496	20.09	12.73	1.71
	44.98	31.45	73.51	-0.00	0.0669	11.65	512.7	401.47	0.0721	582.6	10.487	20.07	12.72	1.70
	45.99	31.45	73.51	0.00	0.0669	11.64	512.3	401.09	0.0722	582.2	10.479	20.06	12.71	1.70
	46.99	31.43	73.54	0.00	0.0669	11.63	511.5	400.35	0.0722	582.0	10.477	20.04	12.70	1.70
	47.99	31.41	73.53	0.00	0.0670	11.65	512.6	401.18	0.0723	583.7	10.506	20.10	12.74	1.70
	49.00	31.43	73.51	-0.00	0.0669	11.64	512.1	400.93	0.0723	585.1	10.531	20.16	12.78	1.71
	50.06	31.39	73.51	0.00	0.0669	11.64	512.1	400.92	0.0723	585.1	10.532	20.15	12.78	1.70
	50.98	31.37	73.54	0.00	0.0669	11.63	511.8	400.51	0.0724	583.6	10.504	20.09	12.74	1.70
	51.98	31.35	73.51	0.00	0.0669	11.63	511.9	400.67	0.0724	586.3	10.553	20.19	12.81	1.70
	52.99	31.33	73.48	-0.00	0.0669	11.64	512.0	400.85	0.0726	586.6	10.559	20.21	12.81	1.70
	53.98	31.35	73.54	0.00	0.0669	11.64	512.1	400.73	0.0724	585.7	10.542	20.16	12.79	1.71
	54.99	31.33	73.51	-0.00	0.0669	11.63	511.7	400.49	0.0722	583.9	10.510	20.11	12.74	1.70
	56.01	31.37	73.51	0.00	0.0669	11.64	512.1	400.89	0.0730	592.3	10.662	20.40	12.97	1.70
	56.99	31.39	73.56	-0.00	0.0669	11.64	512.0	400.55	0.0729	588.3	10.590	20.25	12.86	1.70
	58.00	31.41	73.51	-0.00	0.0668	11.61	511.0	400.05	0.0724	583.1	10.496	20.09	12.73	1.70
	58.98	31.43	73.54	0.00	0.0669	11.64	512.0	400.69	0.0726	587.8	10.580	20.24	12.85	1.70
	60.00	31.45	73.51	0.00	0.0669	11.65	512.4	401.21	0.0732	594.1	10.694	20.47	13.01	1.71
	61.06	31.43	73.51	-0.00	0.0669	11.64	512.3	401.07	0.0732	595.1	10.711	20.50	13.04	1.71
	61.98	31.47	73.54	0.00	0.0669	11.65	512.5	401.13	0.0732	596.1	10.731	20.53	13.07	1.71
	62.99	31.47	73.51	-0.00	0.0669	11.65	512.4	401.23	0.0732	594.9	10.708	20.50	13.04	1.70
	63.98	31.45	73.51	0.00	0.0669	11.65	512.4	401.19	0.0732	592.8	10.670	20.42	12.98	1.70
	64.97	31.54	73.51	0.00	0.0669	11.64	512.4	401.28	0.0729	591.1	10.641	20.37	12.94	1.71
	66.05	31.49	73.54	0.00	0.0669	11.64	512.1	400.84	0.0728	591.3	10.643	20.37	12.94	1.71
	66.97	31.47	73.48	0.00	0.0670	11.65	512.6	401.48	0.0734	595.6	10.721	20.53	13.05	1.70
	67.98	31.47	73.51	0.00	0.0670	11.65	512.6	401.37	0.0733	596.8	10.742	20.56	13.08	1.70
	69.00	31.49	73.54	0.00	0.0669	11.64	512.1	400.86	0.0732	593.5	10.683	20.44	13.00	1.70
	70.08	31.49	73.54	0.00	0.0669	11.64	512.1	400.88	0.0734	597.3	10.752	20.57	13.10	1.71
	71.00	31.51	73.54	0.00	0.0669	11.64	512.1	400.89	0.0735	599.1	10.784	20.64	13.15	1.71
	71.98	31.51	73.48	0.00	0.0669	11.65	512.6	401.60	0.0737	600.0	10.800	20.68	13.17	1.71
	73.06	31.49	73.51	0.00	0.0669	11.65	512.5	401.30	0.0737	601.0	10.817	20.71	13.19	1.71
	73.99	31.51	73.51	-0.00	0.0668	11.63	511.9	400.90	0.0736	600.9	10.816	20.71	13.19	1.71
	74.99	31.47	73.48	-0.00	0.0669	11.64	512.2	401.16	0.0737	601.3	10.824	20.72	13.20	1.71
	75.97	31.47	73.51	0.00	0.0669	11.64	512.0	400.90	0.0737	600.4	10.808	20.69	13.18	1.71
	76.99	31.47	73.48	-0.00	0.0669	11.64	512.3	401.24	0.0736	600.8	10.814	20.71	13.19	1.71
	77.98	31.47	73.51	-0.00	0.0669	11.63	511.9	400.82	0.0736	599.5	10.791	20.65	13.15	1.71
	78.98	31.43	73.51	0.00	0.0669	11.64	512.1	400.92	0.0736	602.5	10.845	20.76	13.23	1.71
	79.98	31.45	73.54	0.00	0.0669	11.63	511.8	400.57	0.0738	602.2	10.840	20.74	13.22	1.71
	81.00	31.45	73.51	-0.00	0.0668	11.63	511.5	400.50	0.0738	602.5	10.846	20.76	13.23	1.71
	81.99	31.43	73.51	-0.00	0.0669	11.64	512.3	401.10	0.0740	604.1	10.873	20.81	13.27	1.71
	82.99	31.40	73.51	-0.00	0.0668	11.63	511.9	400.70	0.0738	603.2	10.857	20.78	13.24	1.71
	84.01	31.49	73.48	-0.00	0.0668	11.62	511.3	400.50	0.0738	601.6	10.830	20.74	13.21	1.71
	84.99	31.45	73.54	-0.00	0.0669	11.64	512.0	400.72	0.0740	603.3	10.859	20.78	13.25	1.71
	86.00	31.45	73.51	-0.00	0.0668	11.63	511.6	400.60	0.0743	607.6	10.936	20.93	13.36	1.71
	86.97	31.47	73.51	0.00	0.0668	11.62	511.3	400.37	0.0742	605.6	10.901	20.86	13.31	1.71
	87.98	31.47	73.51	0.00	0.0668	11.61	510.9	400.07	0.0742	605.9	10.905	20.87	13.32	1.71
	88.98	31.45	73.51	0.00	0.0668	11.61	510.6	399.80	0.0741	606.4	10.915	20.89	13.33	1.71
	89.98	31.45	73.54	0.00	0.0667	11.61	510.7	399.76	0.0743	608.0	10.944	20.94	13.37	1.71
	90.98	31.45	73.51	0.00	0.0668	11.61	511.0	400.07	0.0740	608.3	10.949	20.96	13.38	1.71
	91.96	31.45	73.46	0.00	0.0668	11.61	510.7	400.17	0.0743	606.8	10.922	20.92	13.34	1.71
	92.98	31.45	73.54	0.00	0.0667	11.61	511.0	400.00	0.0745	610.6	10.991	21.03	13.43	1.71
	93.97	31.45	73.51	-0.00	0.0667	11.60	510.5	399.71	0.0743	608.5	10.952	20.96	13.38	1.71
	94.97	31.41	73.51	0.00	0.0668	11.61	510.8	399.84	0.0744	608.2	10.947	20.95	13.37	1.71
	95.99	31.41	73.54	-0.00	0.0667	11.61	510.8	399.77	0.0745	611.5	11.006	21.06	13.45	1.71
	96.99	31.41	73.51	0.00	0.0667	11.60	510.5	399.62	0.0744	610.3	10.985	21.02	13.42	1.71
	98.08	31.39	73.48	-0.00	0.0667	11.60	510.6	399.81	0.0746	611.0	10.998	21.05	13.44	1.71
	98.98	31.41	73.48	0.00	0.0667	11.58	509.7	399.19	0.0748	611.9	11.014	21.08	13.46	1.71
	100.00	31.39	73.51	-0.00	0.0667	11.60	510.3	399.47	0.0746	613.0	11.034	21.11	13.49	1.71
	101.00	31.37	73.51	-0.00	0.0666	11.57	508.9	398.37	0.0746	611.1	10.999	21.05	13.44	1.71
	101.99	31.33	73.51	-0.00	0.0666	11.58	509.6	398.84	0.0747	614.0	11.052	21.14	13.51	1.71
	102.99	31.31	73.48	0.00	0.0666	11.58	509.5	398.90	0.0745	610.4	10.987	21.03	13.42	1.71
	103.99	31.21	73.51	-0.00	0.0666	11.58	509.6	398.72	0.0746	613.3	11.040	21.11	13.49	1.71
	104.99	31.21	73.54	0.00	0.0666	11.58	509.4	398.41	0.0749	613.9	11.050	21.13	13.50	1.71
	105.97	31.15	73.48	0.00	0.0666	11.58	509.6	398.75	0.0749	615.9	11.086	21.20	13.55	1.71
	107.00	31.13	73.51	-0.00	0.0666	11.58	509.5	398.51	0.0748	614.7	11.065	21.15	13.52	1.71
	107.98	31.15	73.54	-0.00	0.0666	11.57	509.2	398.17	0.0749	614.8	11.066	21.15	13.52	1.71
	108.98	31.17	73.51	-0.00	0.0666	11.58	509.3	398.41	0.0749	616.1	11.090	21.21	13.56	1.71
	110.04	31.17	73.54	0.00	0.0666	11.56	508.7	397.82	0.0746	611.4	11.005	21.04	13.44	1.71
	111.00	31.20	73.51	-0.00	0.0666	11.57	508.9	398.14	0.0752	617.9	11.123	21.27	13.60	1.71
	111.99	31.15	73.51	0.00	0.0665	11.57	508.9	398.04	0.0749	616.1	11.091	21.21	13.56	1.71
	112.99	31.15	73.54	-0.00	0.0666	11.56	508.8	397.83	0.0749	616.5	11.097	21.21	13.57	1.71
	114.01	31.07	73.51	-0.00	0.0665	11.56	508.6	397.74	0.0749	615.6	11.080	21.18	13.54	1.71
	114.97	30.97	73.51	0.00	0.0666	11.56	508.8	397.78	0.0749	615.2	11.073	21.16	13.52	1.71
	115.99	30.97	73.54	0.00	0.0665	11.57	508.9	397.67	0.0748	615.2	11.074	21.15	13.53	1.71
	117.05	30.94	73.54	0.00	0.0665	11.56	508.5	397.35	0.0747	613.5	11.042	21.09	13.48	1.71
	117.97	30.92	73.51	0.00	0.0666	11.56	508.8	397.67	0.0750	616.4	11.094	21.20	13.55	1.71
	118.98	30.85	73.51	0.00	0.0665	11.56	508.5	397.39	0.0751	617.0	11.106	21.21	13.56	1.71
	119.98	30.90	73.54	0.00	0.0664	11.55	508.1	396.97	0.0748	615.9	11.086	21.17	13.54	1.71
