Jul 22 2015 at 11:41:24
Frequency: 1.00Hz.
CO2
Zero:  Value:0.95  Date:18 Mar 2005	 at 07:22:33	
Span:  Value:1.00  Date:18 Mar 2005	 at 07:25:09	
H2O
Zero:  Value:0.71  Date:18 Mar 2005	 at 07:52:31	
Span:  Value:0.99  Date:18 Mar 2005	 at 11:44:01	
	Relative Time	Temperature	Pressure	Aux Input	CO2 Absorptance	CO2 mmol/m3	CO2 mg/m3	CO2 umol/mol	H2O Absorptance	H2O mmol/m3	H2O g/m3	H2O mmol/mol	H2O(°C)	Cooler Voltage
	0.53	32.35	73.53	0.00	0.0646	11.15	490.7	385.24	0.0702	559.9	10.078	19.34	12.15	1.75
	1.54	32.36	73.51	-0.00	0.0647	11.15	490.4	385.11	0.0700	560.0	10.079	19.35	12.16	1.75
	2.54	32.41	73.48	0.00	0.0648	11.19	492.2	386.69	0.0694	551.1	9.919	19.05	11.92	1.75
	3.56	32.41	73.48	-0.00	0.0647	11.16	491.2	385.94	0.0695	549.0	9.882	18.98	11.86	1.75
	4.54	32.40	73.51	0.00	0.0651	11.23	494.0	387.96	0.0673	530.0	9.540	18.32	11.33	1.75
	5.55	32.40	73.51	-0.00	0.0652	11.18	492.0	386.39	0.0666	532.0	9.576	18.38	11.38	1.75
	6.55	32.41	73.48	-0.00	0.0648	11.19	492.6	387.01	0.0672	524.4	9.438	18.13	11.17	1.75
	7.55	32.41	73.51	-0.00	0.0647	11.14	490.2	385.01	0.0677	532.4	9.583	18.40	11.40	1.75
	8.61	32.42	73.54	0.00	0.0649	11.17	491.6	386.00	0.0674	528.5	9.514	18.26	11.29	1.75
	9.56	32.43	73.48	-0.00	0.0648	11.18	491.9	386.54	0.0674	526.8	9.483	18.21	11.24	1.75
	10.55	32.43	73.51	0.00	0.0648	11.19	492.1	386.58	0.0674	527.2	9.490	18.22	11.25	1.75
	11.56	32.41	73.46	-0.00	0.0649	11.20	492.9	387.44	0.0673	527.2	9.490	18.23	11.25	1.75
	12.56	32.43	73.48	-0.00	0.0648	11.18	492.1	386.66	0.0675	527.7	9.499	18.24	11.26	1.75
	13.53	32.43	73.51	0.00	0.0648	11.16	491.0	385.70	0.0675	528.4	9.511	18.26	11.28	1.75
	14.54	32.45	73.51	0.00	0.0648	11.17	491.5	386.05	0.0680	530.5	9.548	18.33	11.34	1.75
	15.54	32.45	73.51	-0.00	0.0647	11.17	491.4	386.03	0.0673	528.1	9.506	18.25	11.28	1.75
	16.57	32.42	73.46	0.00	0.0647	11.16	491.1	386.00	0.0673	527.1	9.488	18.23	11.25	1.75
	17.55	32.41	73.48	0.00	0.0647	11.16	490.9	385.71	0.0675	527.7	9.498	18.24	11.26	1.75
	18.56	32.47	73.48	-0.00	0.0645	11.11	489.0	384.29	0.0674	527.4	9.493	18.24	11.26	1.75
	19.55	32.49	73.51	0.00	0.0647	11.15	490.5	385.36	0.0679	531.9	9.575	18.39	11.39	1.75
	20.56	32.48	73.51	-0.00	0.0646	11.14	490.0	384.96	0.0679	537.3	9.671	18.57	11.54	1.75
	21.56	32.48	73.51	-0.00	0.0648	11.16	491.0	385.75	0.0687	539.1	9.704	18.64	11.59	1.75
	22.53	32.46	73.48	0.00	0.0647	11.15	490.4	385.40	0.0674	528.0	9.504	18.26	11.27	1.75
	23.54	32.49	73.48	0.00	0.0647	11.14	490.2	385.25	0.0682	538.1	9.686	18.61	11.56	1.75
	24.54	32.47	73.51	-0.00	0.0647	11.14	490.3	385.17	0.0683	539.7	9.714	18.65	11.60	1.75
	25.55	32.48	73.51	-0.00	0.0647	11.13	489.7	384.68	0.0682	536.4	9.655	18.54	11.51	1.75
	26.61	32.49	73.51	-0.00	0.0647	11.12	489.4	384.48	0.0682	534.5	9.622	18.48	11.46	1.75
	27.55	32.54	73.51	-0.00	0.0647	11.13	489.9	384.93	0.0680	533.2	9.597	18.43	11.42	1.75
	28.55	32.46	73.51	0.00	0.0646	11.13	489.6	384.62	0.0681	534.3	9.618	18.47	11.45	1.75
	29.61	32.52	73.48	0.00	0.0646	11.14	489.9	385.09	0.0689	542.7	9.768	18.77	11.69	1.75
	30.55	32.49	73.51	0.00	0.0647	11.14	490.1	385.03	0.0684	540.4	9.726	18.68	11.62	1.75
	31.56	32.50	73.48	0.00	0.0646	11.14	490.3	385.37	0.0683	535.7	9.642	18.53	11.49	1.75
	32.56	32.51	73.48	-0.00	0.0647	11.14	490.2	385.25	0.0691	543.2	9.778	18.79	11.70	1.75
	33.54	32.51	73.51	0.00	0.0646	11.12	489.4	384.51	0.0694	550.2	9.904	19.02	11.90	1.75
	34.55	32.52	73.48	-0.00	0.0645	11.13	489.6	384.79	0.0691	546.5	9.838	18.90	11.80	1.75
	35.55	32.50	73.48	-0.00	0.0645	11.10	488.6	383.98	0.0687	542.8	9.770	18.77	11.69	1.75
	36.55	32.52	73.51	0.00	0.0647	11.14	490.3	385.24	0.0694	550.6	9.911	19.04	11.91	1.75
	37.53	32.50	73.48	0.00	0.0646	11.14	490.0	385.13	0.0695	552.1	9.938	19.09	11.95	1.75
	38.55	32.48	73.51	-0.00	0.0647	11.15	490.6	385.42	0.0698	554.7	9.984	19.17	12.02	1.75
	39.53	32.48	73.53	0.00	0.0646	11.13	489.7	384.60	0.0694	550.1	9.901	19.01	11.89	1.75
	40.55	32.50	73.49	0.00	0.0646	11.13	489.9	385.02	0.0695	551.6	9.929	19.07	11.94	1.75
	41.53	32.53	73.54	0.00	0.0647	11.14	490.2	385.01	0.0700	557.5	10.035	19.27	12.10	1.75
	42.54	32.53	73.51	0.00	0.0646	11.13	489.8	384.83	0.0698	554.1	9.974	19.16	12.01	1.75
	43.52	32.53	73.48	0.00	0.0646	11.14	490.0	385.17	0.0695	553.8	9.968	19.15	12.00	1.75
	44.54	32.55	73.46	0.00	0.0648	11.18	491.9	386.79	0.0706	564.5	10.161	19.53	12.29	1.75
	45.62	32.55	73.53	0.00	0.0648	11.18	491.9	386.40	0.0707	567.0	10.206	19.60	12.36	1.75
	46.55	32.54	73.51	0.00	0.0645	11.11	489.1	384.29	0.0703	562.3	10.121	19.44	12.23	1.75
	47.55	32.52	73.51	0.00	0.0645	11.11	489.0	384.20	0.0711	567.1	10.208	19.61	12.36	1.75
	48.56	32.55	73.51	-0.00	0.0645	11.12	489.2	384.41	0.0715	572.7	10.309	19.80	12.51	1.75
	49.55	32.52	73.51	0.00	0.0645	11.12	489.1	384.28	0.0721	584.4	10.519	20.20	12.82	1.75
	50.55	32.54	73.51	-0.00	0.0644	11.09	487.9	383.41	0.0695	554.4	9.980	19.17	12.02	1.75
	51.56	32.54	73.51	-0.00	0.0646	11.12	489.5	384.61	0.0701	558.2	10.048	19.30	12.12	1.75
	52.54	32.52	73.48	-0.00	0.0645	11.12	489.2	384.48	0.0716	571.3	10.283	19.76	12.47	1.75
	53.54	32.58	73.54	0.00	0.0643	11.07	487.2	382.77	0.0701	563.9	10.149	19.49	12.27	1.75
	54.54	32.55	73.56	0.00	0.0644	11.07	487.1	382.47	0.0696	553.1	9.955	19.11	11.98	1.75
	55.54	32.51	73.51	0.00	0.0644	11.09	487.8	383.29	0.0697	552.5	9.944	19.10	11.96	1.75
	56.53	32.55	73.48	0.00	0.0645	11.11	488.9	384.27	0.0697	555.4	9.997	19.21	12.04	1.75
	57.55	32.52	73.51	0.00	0.0644	11.08	487.6	383.13	0.0694	550.4	9.908	19.03	11.91	1.75
	58.53	32.57	73.48	0.00	0.0644	11.08	487.7	383.41	0.0697	553.2	9.957	19.13	11.98	1.75
	59.55	32.56	73.54	0.00	0.0645	11.11	488.6	383.84	0.0704	563.7	10.147	19.48	12.27	1.75
	60.56	32.55	73.51	-0.00	0.0644	11.09	487.7	383.27	0.0699	556.9	10.025	19.26	12.08	1.75
	61.62	32.59	73.51	0.00	0.0645	11.09	488.0	383.49	0.0703	556.6	10.019	19.25	12.08	1.75
	62.56	32.52	73.48	-0.00	0.0644	11.09	488.1	383.64	0.0709	567.4	10.213	19.62	12.37	1.75
	63.55	32.54	73.48	-0.00	0.0642	11.05	486.3	382.27	0.0697	555.8	10.004	19.22	12.05	1.75
	64.55	32.53	73.51	-0.00	0.0644	11.07	487.1	382.74	0.0700	556.3	10.013	19.23	12.07	1.75
	65.55	32.55	73.48	-0.00	0.0643	11.07	487.2	383.01	0.0702	559.9	10.078	19.37	12.17	1.75
	66.55	32.57	73.53	-0.00	0.0645	11.09	487.9	383.30	0.0705	562.7	10.128	19.45	12.24	1.76
	67.55	32.54	73.48	-0.00	0.0645	11.10	488.5	384.01	0.0714	567.4	10.214	19.62	12.37	1.75
	68.55	32.56	73.51	0.00	0.0642	11.07	487.1	382.76	0.0705	564.6	10.162	19.52	12.29	1.76
	69.53	32.57	73.48	0.00	0.0643	11.07	487.2	383.02	0.0711	569.6	10.252	19.70	12.43	1.76
	70.54	32.54	73.51	0.00	0.0643	11.06	486.6	382.35	0.0707	566.0	10.187	19.57	12.33	1.75
	71.53	32.56	73.51	0.00	0.0644	11.08	487.4	383.00	0.0711	567.6	10.217	19.63	12.37	1.76
	72.54	32.57	73.48	0.00	0.0643	11.07	487.1	382.94	0.0708	567.8	10.221	19.64	12.38	1.76
	73.52	32.54	73.51	0.00	0.0644	11.08	487.5	383.04	0.0713	571.9	10.294	19.77	12.49	1.75
	74.54	32.56	73.51	0.00	0.0644	11.08	487.6	383.19	0.0716	571.3	10.284	19.75	12.47	1.76
	75.55	32.59	73.51	-0.00	0.0644	11.08	487.6	383.21	0.0710	570.6	10.271	19.73	12.46	1.76
	76.55	32.57	73.51	-0.00	0.0644	11.10	488.2	383.67	0.0715	578.0	10.403	19.98	12.65	1.76
	77.55	32.56	73.46	-0.00	0.0643	11.06	486.7	382.74	0.0713	574.4	10.339	19.87	12.55	1.76
	78.55	32.59	73.51	-0.00	0.0643	11.05	486.4	382.28	0.0714	573.0	10.315	19.82	12.52	1.76
	79.55	32.56	73.51	0.00	0.0642	11.06	486.7	382.48	0.0714	576.5	10.377	19.93	12.61	1.76
	80.54	32.56	73.51	-0.00	0.0643	11.06	486.7	382.49	0.0720	581.8	10.473	20.12	12.75	1.76
	81.54	32.59	73.51	0.00	0.0643	11.06	486.7	382.49	0.0718	579.6	10.433	20.04	12.69	1.76
	82.54	32.59	73.48	-0.00	0.0643	11.07	487.1	382.96	0.0724	585.4	10.536	20.25	12.84	1.76
	83.54	32.59	73.46	0.00	0.0643	11.05	486.3	382.45	0.0721	583.9	10.511	20.21	12.81	1.76
	84.54	32.59	73.51	0.00	0.0641	11.03	485.5	381.58	0.0719	576.9	10.383	19.95	12.62	1.76
	85.55	32.56	73.51	-0.00	0.0643	11.05	486.2	382.05	0.0726	586.7	10.561	20.29	12.88	1.76
	86.63	32.63	73.46	-0.00	0.0641	11.04	485.7	382.00	0.0723	581.3	10.464	20.12	12.74	1.76
	87.53	32.60	73.51	0.00	0.0642	11.05	486.0	381.98	0.0723	584.9	10.528	20.23	12.83	1.76
	88.55	32.58	73.48	0.00	0.0642	11.04	485.6	381.75	0.0722	584.3	10.517	20.21	12.82	1.76
	89.55	32.58	73.51	-0.00	0.0641	11.02	484.7	380.92	0.0733	585.0	10.530	20.23	12.84	1.76
	90.54	32.56	73.51	0.00	0.0642	11.04	485.6	381.57	0.0739	600.5	10.808	20.76	13.23	1.76
	91.54	32.58	73.48	-0.00	0.0641	11.03	485.4	381.58	0.0737	603.3	10.860	20.87	13.31	1.76
	92.54	32.56	73.51	0.00	0.0643	11.05	486.3	382.11	0.0732	592.2	10.660	20.48	13.02	1.76
	93.54	32.60	73.51	0.00	0.0642	11.05	486.2	382.15	0.0727	590.4	10.627	20.42	12.98	1.76
	94.54	32.60	73.48	0.00	0.0642	11.05	486.3	382.32	0.0731	594.4	10.698	20.56	13.08	1.76
	95.61	32.61	73.51	0.00	0.0642	11.03	485.5	381.59	0.0727	588.9	10.600	20.36	12.94	1.76
	96.53	32.62	73.51	0.00	0.0642	11.04	485.6	381.69	0.0727	588.2	10.587	20.34	12.92	1.76
	97.53	32.60	73.51	0.00	0.0642	11.05	486.2	382.09	0.0730	595.5	10.719	20.59	13.11	1.76
	98.61	32.58	73.48	0.00	0.0642	11.04	485.6	381.75	0.0727	589.4	10.608	20.39	12.95	1.76
	99.53	32.60	73.48	0.00	0.0642	11.04	485.6	381.76	0.0724	586.1	10.549	20.27	12.86	1.76
	100.54	32.63	73.51	-0.00	0.0641	11.03	485.4	381.51	0.0727	589.5	10.612	20.39	12.96	1.76
	101.54	32.63	73.46	-0.00	0.0641	11.01	484.6	381.15	0.0723	584.2	10.516	20.22	12.82	1.76
	102.54	32.63	73.51	0.00	0.0640	11.00	484.0	380.39	0.0723	584.1	10.514	20.20	12.81	1.76
	103.54	32.63	73.51	0.00	0.0640	11.01	484.4	380.72	0.0725	585.2	10.533	20.24	12.84	1.76
	104.54	32.60	73.51	0.00	0.0641	11.02	485.0	381.14	0.0728	592.9	10.672	20.50	13.04	1.76
	105.61	32.60	73.54	0.00	0.0642	11.03	485.3	381.30	0.0735	598.2	10.767	20.68	13.18	1.76
	106.55	32.63	73.48	-0.00	0.0641	11.02	484.9	381.26	0.0732	597.0	10.747	20.66	13.15	1.76
	107.55	32.60	73.48	0.00	0.0639	10.99	483.4	380.05	0.0726	590.9	10.636	20.44	12.99	1.76
	108.55	32.65	73.51	-0.00	0.0639	10.98	483.3	379.90	0.0730	591.8	10.653	20.47	13.02	1.76
	109.54	32.60	73.51	0.00	0.0639	10.98	483.1	379.65	0.0734	597.5	10.754	20.66	13.16	1.76
	110.53	32.65	73.46	0.00	0.0641	11.01	484.4	381.06	0.0740	603.5	10.862	20.89	13.31	1.76
	111.54	32.62	73.51	0.00	0.0641	11.01	484.6	380.88	0.0738	600.7	10.812	20.77	13.24	1.76
	112.54	32.65	73.51	-0.00	0.0641	11.01	484.5	380.81	0.0737	600.3	10.806	20.76	13.23	1.76
	113.52	32.62	73.51	0.00	0.0641	11.02	484.8	381.07	0.0737	600.6	10.810	20.77	13.24	1.76
	114.55	32.65	73.51	0.00	0.0641	11.02	485.0	381.21	0.0739	603.2	10.858	20.86	13.31	1.76
	115.55	32.60	73.51	-0.00	0.0640	11.01	484.4	380.68	0.0738	603.4	10.862	20.87	13.31	1.76
	116.55	32.65	73.46	0.00	0.0641	11.02	485.0	381.49	0.0738	602.3	10.842	20.85	13.29	1.76
	117.53	32.65	73.51	0.00	0.0641	11.02	484.7	380.98	0.0743	612.5	11.025	21.18	13.54	1.76
	118.56	32.65	73.51	0.00	0.0641	11.02	485.0	381.24	0.0743	608.7	10.957	21.05	13.45	1.76
	119.53	32.65	73.46	0.00	0.0640	11.01	484.4	381.06	0.0739	605.1	10.891	20.94	13.35	1.76
