Jul 22 2015 at 16:19:46
Frequency: 1.00Hz.
CO2
Zero:  Value:0.95  Date:18 Mar 2005	 at 07:22:33	
Span:  Value:1.00  Date:18 Mar 2005	 at 07:25:09	
H2O
Zero:  Value:0.71  Date:18 Mar 2005	 at 07:52:31	
Span:  Value:0.99  Date:18 Mar 2005	 at 11:44:01	
	Relative Time	Temperature	Pressure	Aux Input	CO2 Absorptance	CO2 mmol/m3	CO2 mg/m3	CO2 umol/mol	H2O Absorptance	H2O mmol/m3	H2O g/m3	H2O mmol/mol	H2O(°C)	Cooler Voltage
	0.64	38.29	75.57	-0.00	0.0680	11.79	518.7	403.94	0.0480	323.9	5.830	11.10	4.38	1.70
	1.65	38.26	75.62	0.00	0.0680	11.79	518.6	403.58	0.0476	324.0	5.832	11.09	4.38	1.71
	2.70	38.32	75.62	0.00	0.0680	11.79	518.9	403.84	0.0474	321.2	5.782	11.00	4.26	1.70
	3.63	38.29	75.59	0.00	0.0680	11.78	518.5	403.64	0.0477	323.4	5.822	11.08	4.36	1.70
	4.65	38.28	75.62	0.00	0.0680	11.79	518.8	403.73	0.0478	324.3	5.838	11.11	4.40	1.71
	5.65	38.29	75.59	0.00	0.0679	11.78	518.2	403.38	0.0479	326.2	5.872	11.17	4.48	1.70
	6.65	38.29	75.57	0.00	0.0679	11.78	518.2	403.56	0.0482	327.7	5.899	11.23	4.55	1.70
	7.66	38.29	75.59	-0.00	0.0679	11.78	518.2	403.40	0.0482	327.0	5.886	11.20	4.52	1.70
	8.74	38.29	75.62	-0.00	0.0678	11.77	517.8	402.93	0.0483	328.9	5.920	11.26	4.60	1.71
	9.64	38.32	75.62	0.00	0.0680	11.80	519.0	403.96	0.0480	326.3	5.873	11.17	4.48	1.71
	10.64	38.26	75.59	0.00	0.0680	11.80	519.3	404.20	0.0481	327.0	5.885	11.20	4.51	1.70
	11.64	38.26	75.59	0.00	0.0679	11.79	518.8	403.86	0.0484	328.6	5.914	11.25	4.58	1.70
	12.65	38.26	75.62	0.00	0.0679	11.78	518.2	403.27	0.0488	330.4	5.947	11.31	4.66	1.70
	13.63	38.27	75.59	0.00	0.0679	11.77	517.7	402.97	0.0491	337.0	6.065	11.54	4.94	1.71
	14.65	38.28	75.62	0.00	0.0678	11.77	517.7	402.84	0.0489	334.2	6.016	11.44	4.83	1.71
	15.63	38.30	75.59	0.00	0.0679	11.77	517.7	403.06	0.0495	337.5	6.074	11.56	4.97	1.70
	16.64	38.31	75.59	0.00	0.0678	11.75	517.0	402.53	0.0500	342.5	6.165	11.73	5.18	1.70
	17.63	38.34	75.62	0.00	0.0678	11.75	517.0	402.38	0.0497	342.1	6.157	11.71	5.16	1.71
	18.66	38.32	75.59	-0.00	0.0677	11.75	516.9	402.44	0.0497	343.7	6.187	11.77	5.23	1.71
	19.64	38.34	75.59	-0.00	0.0678	11.74	516.5	402.18	0.0495	340.0	6.119	11.65	5.07	1.71
	20.64	38.35	75.57	0.00	0.0677	11.73	516.2	402.10	0.0498	340.2	6.123	11.66	5.08	1.71
	21.71	38.38	75.59	0.00	0.0678	11.74	516.6	402.31	0.0502	346.0	6.228	11.86	5.33	1.71
	22.64	38.36	75.62	0.00	0.0678	11.74	516.6	402.14	0.0499	344.8	6.206	11.81	5.28	1.71
	23.63	38.36	75.62	-0.00	0.0677	11.73	516.3	401.85	0.0501	344.9	6.209	11.81	5.28	1.71
	24.63	38.30	75.59	0.00	0.0677	11.73	516.1	401.76	0.0503	345.3	6.216	11.83	5.30	1.71
	25.65	38.37	75.57	0.00	0.0676	11.71	515.3	401.39	0.0507	350.8	6.314	12.02	5.53	1.71
	26.64	38.35	75.57	-0.00	0.0676	11.69	514.2	400.51	0.0507	353.2	6.357	12.10	5.62	1.71
	27.64	38.31	75.57	-0.00	0.0676	11.70	514.7	400.87	0.0511	354.3	6.378	12.14	5.67	1.70
	28.63	38.29	75.62	0.00	0.0675	11.69	514.4	400.30	0.0518	355.9	6.405	12.18	5.73	1.71
	29.66	38.28	75.59	-0.00	0.0674	11.67	513.5	399.75	0.0523	364.2	6.555	12.47	6.06	1.71
	30.65	38.31	75.62	0.00	0.0675	11.68	513.7	399.81	0.0511	362.4	6.523	12.41	5.99	1.71
	31.65	38.26	75.65	0.00	0.0675	11.68	514.0	399.86	0.0517	359.7	6.475	12.31	5.88	1.71
	32.63	38.25	75.59	0.00	0.0675	11.69	514.4	400.40	0.0517	357.4	6.433	12.24	5.79	1.71
	33.73	38.30	75.59	-0.00	0.0674	11.68	513.9	400.05	0.0524	367.6	6.617	12.59	6.20	1.71
	34.63	38.26	75.59	0.00	0.0674	11.67	513.7	399.87	0.0525	365.8	6.584	12.53	6.13	1.71
	35.65	38.26	75.62	0.00	0.0675	11.68	513.8	399.81	0.0524	367.5	6.614	12.58	6.19	1.71
	36.65	38.26	75.59	-0.00	0.0675	11.68	514.1	400.18	0.0523	367.0	6.605	12.57	6.17	1.71
	37.64	38.26	75.59	0.00	0.0674	11.69	514.2	400.23	0.0520	362.7	6.529	12.42	6.00	1.71
	38.63	38.26	75.59	0.00	0.0674	11.68	513.9	400.05	0.0526	366.5	6.597	12.55	6.15	1.71
	39.64	38.24	75.57	0.00	0.0674	11.67	513.6	399.90	0.0530	371.7	6.691	12.74	6.36	1.71
	40.62	38.23	75.59	0.00	0.0675	11.68	514.0	400.06	0.0526	369.1	6.644	12.64	6.26	1.71
	41.64	38.21	75.59	0.00	0.0675	11.68	514.0	400.01	0.0524	365.6	6.580	12.52	6.12	1.71
	42.63	38.11	75.57	-0.00	0.0672	11.64	512.3	398.72	0.0542	380.8	6.854	13.04	6.70	1.71
	43.63	38.23	75.59	0.00	0.0673	11.64	512.1	398.61	0.0539	379.8	6.836	13.01	6.67	1.71
	44.63	38.18	75.62	0.00	0.0673	11.64	512.1	398.35	0.0535	380.0	6.840	13.01	6.68	1.71
	45.63	38.24	75.59	0.00	0.0674	11.66	513.0	399.32	0.0533	375.5	6.759	12.86	6.50	1.71
	46.66	38.26	75.62	-0.00	0.0674	11.67	513.6	399.69	0.0531	371.5	6.687	12.72	6.35	1.71
	47.66	38.29	75.59	-0.00	0.0671	11.63	511.6	398.26	0.0547	383.9	6.911	13.15	6.83	1.71
	48.66	38.32	75.59	0.00	0.0673	11.65	512.5	399.00	0.0542	383.3	6.900	13.13	6.81	1.71
	49.64	38.42	75.65	0.00	0.0674	11.63	511.6	398.16	0.0538	383.5	6.902	13.13	6.82	1.71
	50.65	38.36	75.59	0.00	0.0674	11.65	512.7	399.22	0.0538	380.4	6.847	13.03	6.70	1.71
	51.64	38.27	75.59	0.00	0.0674	11.65	512.5	398.97	0.0539	380.8	6.855	13.04	6.71	1.71
	52.65	38.34	75.59	0.00	0.0674	11.65	512.5	399.02	0.0540	380.9	6.855	13.05	6.72	1.71
	53.63	38.29	75.59	0.00	0.0673	11.65	512.8	399.16	0.0541	383.6	6.905	13.14	6.82	1.71
	54.65	38.29	75.54	0.00	0.0673	11.62	511.2	398.21	0.0545	388.8	6.999	13.33	7.01	1.71
	55.65	38.24	75.59	-0.00	0.0671	11.62	511.4	398.05	0.0553	391.2	7.041	13.40	7.10	1.71
	56.66	38.18	75.59	-0.00	0.0672	11.63	511.8	398.30	0.0551	390.9	7.036	13.38	7.09	1.71
	57.63	38.17	75.62	0.00	0.0673	11.64	512.2	398.44	0.0547	389.6	7.013	13.34	7.04	1.71
	58.66	38.22	75.62	-0.00	0.0672	11.62	511.1	397.62	0.0555	393.1	7.076	13.46	7.17	1.71
	59.66	38.22	75.59	-0.00	0.0673	11.62	511.5	398.09	0.0555	396.7	7.141	13.59	7.31	1.71
	60.64	38.19	75.54	0.00	0.0673	11.64	512.0	398.73	0.0547	389.3	7.007	13.34	7.03	1.71
	61.65	38.22	75.59	0.00	0.0673	11.64	512.0	398.45	0.0551	391.5	7.046	13.41	7.11	1.71
	62.63	38.22	75.59	0.00	0.0671	11.59	510.1	397.01	0.0567	406.6	7.319	13.92	7.66	1.71
	63.65	38.22	75.62	0.00	0.0670	11.59	510.1	396.88	0.0576	411.1	7.399	14.07	7.82	1.71
	64.65	38.24	75.59	-0.00	0.0672	11.61	510.9	397.69	0.0563	402.5	7.246	13.79	7.52	1.71
	65.64	38.24	75.59	0.00	0.0672	11.62	511.5	398.10	0.0570	408.9	7.361	14.00	7.75	1.71
	66.63	38.30	75.59	0.00	0.0672	11.62	511.1	397.88	0.0570	411.4	7.405	14.09	7.84	1.71
	67.64	38.29	75.62	0.00	0.0672	11.62	511.3	397.88	0.0565	408.6	7.354	13.99	7.74	1.71
	68.64	38.31	75.59	0.00	0.0672	11.60	510.4	397.39	0.0573	418.5	7.533	14.34	8.09	1.71
	69.64	38.24	75.59	0.00	0.0670	11.58	509.5	396.54	0.0572	414.6	7.463	14.20	7.95	1.71
	70.65	38.23	75.59	0.00	0.0670	11.59	509.9	396.84	0.0574	416.2	7.492	14.25	8.01	1.71
	71.64	38.23	75.59	0.00	0.0673	11.66	512.9	399.22	0.0565	408.2	7.348	13.98	7.72	1.71
	72.63	38.28	75.62	0.00	0.0671	11.59	509.7	396.67	0.0571	411.3	7.404	14.08	7.84	1.71
	73.65	38.19	75.59	-0.00	0.0671	11.60	510.5	397.26	0.0574	416.9	7.504	14.27	8.03	1.71
	74.65	38.24	75.59	-0.00	0.0673	11.63	511.6	398.24	0.0572	410.1	7.381	14.04	7.79	1.71
	75.64	38.24	75.59	-0.00	0.0672	11.58	509.6	396.62	0.0574	415.9	7.486	14.24	8.00	1.71
	76.63	38.24	75.59	0.00	0.0672	11.60	510.2	397.16	0.0572	413.6	7.444	14.16	7.92	1.72
	77.64	38.26	75.59	0.00	0.0671	11.61	511.0	397.76	0.0575	414.6	7.463	14.20	7.95	1.72
	78.72	38.29	75.59	0.00	0.0671	11.59	510.1	397.14	0.0576	418.5	7.533	14.33	8.09	1.72
	79.64	38.29	75.59	0.00	0.0671	11.58	509.7	396.81	0.0575	415.2	7.474	14.22	7.98	1.71
	80.65	38.26	75.62	-0.00	0.0671	11.58	509.6	396.52	0.0575	416.5	7.497	14.26	8.02	1.72
	81.67	38.29	75.57	-0.00	0.0671	11.62	511.4	398.23	0.0573	416.2	7.492	14.26	8.01	1.72
	82.65	38.29	75.62	-0.00	0.0670	11.58	509.4	396.44	0.0572	411.9	7.414	14.10	7.86	1.72
	83.65	38.29	75.62	0.00	0.0671	11.59	510.0	396.88	0.0572	414.0	7.452	14.18	7.93	1.72
	84.71	38.31	75.59	0.00	0.0670	11.57	509.1	396.37	0.0581	422.4	7.602	14.47	8.23	1.72
	85.64	38.31	75.62	0.00	0.0669	11.57	509.2	396.33	0.0583	425.9	7.666	14.58	8.35	1.72
	86.64	38.32	75.59	0.00	0.0669	11.56	508.8	396.11	0.0580	423.8	7.628	14.52	8.28	1.72
	87.64	38.31	75.57	0.00	0.0669	11.55	508.4	395.96	0.0576	418.7	7.537	14.35	8.10	1.72
	88.64	38.38	75.59	0.00	0.0669	11.56	508.7	396.11	0.0578	420.3	7.566	14.40	8.16	1.72
	89.64	38.41	75.59	0.00	0.0669	11.56	508.7	396.16	0.0578	421.4	7.585	14.44	8.20	1.72
	90.73	38.41	75.65	-0.00	0.0670	11.58	509.6	396.62	0.0579	420.9	7.577	14.41	8.18	1.72
	91.65	38.42	75.59	0.00	0.0669	11.55	508.1	395.68	0.0576	420.0	7.561	14.39	8.15	1.72
	92.65	38.43	75.59	0.00	0.0670	11.59	509.9	397.12	0.0575	411.1	7.400	14.09	7.84	1.72
	93.63	38.43	75.57	0.00	0.0671	11.59	510.1	397.39	0.0576	417.0	7.506	14.29	8.05	1.72
	94.65	38.39	75.59	0.00	0.0672	11.61	511.0	397.94	0.0574	416.7	7.500	14.28	8.03	1.72
	95.64	38.45	75.57	-0.00	0.0671	11.57	509.3	396.81	0.0576	422.6	7.607	14.49	8.24	1.72
	96.64	38.42	75.59	0.00	0.0670	11.59	510.1	397.28	0.0580	419.0	7.542	14.36	8.12	1.72
	97.64	38.45	75.59	-0.00	0.0668	11.58	509.7	396.99	0.0582	417.1	7.508	14.29	8.05	1.72
	98.66	38.45	75.62	0.00	0.0670	11.57	509.2	396.46	0.0582	419.3	7.548	14.37	8.13	1.72
	99.62	38.50	75.59	0.00	0.0670	11.56	508.8	396.37	0.0572	420.4	7.567	14.41	8.17	1.72
	100.65	38.50	75.59	-0.00	0.0671	11.60	510.4	397.64	0.0571	411.3	7.404	14.10	7.85	1.72
	101.64	38.50	75.59	0.00	0.0670	11.58	509.5	396.90	0.0572	417.5	7.515	14.31	8.07	1.72
	102.63	38.47	75.59	0.00	0.0670	11.58	509.4	396.76	0.0576	416.8	7.502	14.28	8.04	1.72
	103.63	38.52	75.59	0.00	0.0669	11.57	508.9	396.46	0.0576	416.4	7.495	14.27	8.03	1.72
	104.63	38.50	75.59	0.00	0.0669	11.57	509.2	396.70	0.0581	422.4	7.602	14.48	8.24	1.72
	105.66	38.50	75.59	-0.00	0.0669	11.56	508.7	396.24	0.0580	422.2	7.600	14.47	8.23	1.72
	106.66	38.52	75.59	-0.00	0.0670	11.57	509.1	396.59	0.0584	424.0	7.632	14.53	8.30	1.72
	107.66	38.48	75.59	0.00	0.0670	11.58	509.6	396.93	0.0584	426.4	7.675	14.61	8.38	1.72
	108.66	38.45	75.59	-0.00	0.0669	11.56	508.6	396.13	0.0585	426.4	7.675	14.61	8.37	1.72
	109.65	38.44	75.62	0.00	0.0670	11.59	510.1	397.13	0.0585	428.0	7.705	14.66	8.43	1.72
	110.65	38.42	75.59	-0.00	0.0670	11.57	509.3	396.62	0.0581	424.2	7.635	14.53	8.30	1.72
	111.65	38.45	75.62	0.00	0.0669	11.56	508.6	396.02	0.0581	422.9	7.612	14.49	8.25	1.72
	112.63	38.38	75.59	0.00	0.0669	11.55	508.2	395.77	0.0580	422.8	7.610	14.49	8.25	1.72
	113.65	38.43	75.59	0.00	0.0672	11.58	509.6	396.85	0.0585	425.6	7.660	14.58	8.34	1.72
	114.64	38.39	75.57	0.00	0.0670	11.56	508.7	396.24	0.0583	424.4	7.639	14.55	8.30	1.72
	115.72	38.38	75.59	-0.00	0.0670	11.58	509.6	396.80	0.0582	424.3	7.637	14.54	8.30	1.72
	116.64	38.36	75.59	0.00	0.0670	11.57	509.2	396.46	0.0580	421.8	7.593	14.45	8.21	1.72
	117.66	38.32	75.59	0.00	0.0670	11.59	510.2	397.20	0.0580	425.0	7.649	14.56	8.32	1.72
	118.65	38.36	75.62	0.00	0.0670	11.58	509.7	396.70	0.0580	422.1	7.598	14.46	8.22	1.72
	119.65	38.35	75.59	0.00	0.0670	11.59	510.0	397.06	0.0583	424.2	7.636	14.53	8.29	1.72
	120.64	38.29	75.59	0.00	0.0670	11.59	509.8	396.83	0.0585	426.2	7.672	14.60	8.36	1.72
