Jul 22 2015 at 15:25:09
Frequency: 1.00Hz.
CO2
Zero:  Value:0.95  Date:18 Mar 2005	 at 07:22:33	
Span:  Value:1.00  Date:18 Mar 2005	 at 07:25:09	
H2O
Zero:  Value:0.71  Date:18 Mar 2005	 at 07:52:31	
Span:  Value:0.99  Date:18 Mar 2005	 at 11:44:01	
	Relative Time	Temperature	Pressure	Aux Input	CO2 Absorptance	CO2 mmol/m3	CO2 mg/m3	CO2 umol/mol	H2O Absorptance	H2O mmol/m3	H2O g/m3	H2O mmol/mol	H2O(°C)	Cooler Voltage
	0.36	37.02	75.59	-0.00	0.0680	11.79	518.9	402.32	0.0518	362.2	6.519	12.35	5.92	1.80
	1.36	37.02	75.59	0.00	0.0679	11.77	518.0	401.57	0.0514	358.2	6.447	12.22	5.76	1.79
	2.34	36.95	75.59	0.00	0.0678	11.75	516.9	400.64	0.0517	360.0	6.480	12.28	5.83	1.79
	3.35	36.97	75.57	0.00	0.0678	11.75	517.0	400.91	0.0518	361.2	6.502	12.33	5.89	1.79
	4.34	37.04	75.59	0.00	0.0676	11.72	515.8	399.89	0.0522	362.5	6.525	12.37	5.94	1.79
	5.37	37.04	75.62	-0.00	0.0677	11.72	515.5	399.54	0.0520	363.2	6.537	12.39	5.97	1.79
	6.37	37.06	75.59	-0.00	0.0676	11.72	515.6	399.81	0.0519	363.5	6.544	12.40	5.98	1.79
	7.35	37.04	75.62	0.00	0.0677	11.74	516.6	400.44	0.0530	370.9	6.676	12.65	6.27	1.80
	8.36	37.04	75.62	-0.00	0.0678	11.73	516.0	399.91	0.0532	369.5	6.651	12.60	6.21	1.79
	9.36	37.02	75.59	-0.00	0.0676	11.72	515.6	399.75	0.0531	371.6	6.690	12.68	6.30	1.79
	10.36	36.98	75.59	0.00	0.0676	11.71	515.2	399.36	0.0534	373.6	6.725	12.74	6.37	1.79
	11.34	37.02	75.62	0.00	0.0676	11.71	515.1	399.21	0.0537	378.1	6.806	12.89	6.55	1.79
	12.36	36.99	75.65	0.00	0.0675	11.69	514.5	398.59	0.0541	383.5	6.904	13.07	6.76	1.80
	13.34	36.96	75.59	0.00	0.0675	11.68	514.1	398.51	0.0541	383.3	6.900	13.07	6.74	1.80
	14.35	36.97	75.62	0.00	0.0676	11.71	515.1	399.12	0.0541	387.0	6.966	13.19	6.88	1.79
	15.34	36.92	75.59	0.00	0.0675	11.70	514.6	398.85	0.0535	378.2	6.807	12.90	6.55	1.79
	16.35	36.90	75.62	0.00	0.0675	11.68	514.0	398.24	0.0533	376.2	6.771	12.82	6.47	1.79
	17.41	36.88	75.62	0.00	0.0675	11.68	514.1	398.26	0.0535	377.8	6.800	12.88	6.53	1.80
	18.36	36.82	75.59	-0.00	0.0675	11.68	514.1	398.35	0.0535	378.0	6.805	12.89	6.54	1.80
	19.42	36.86	75.62	-0.00	0.0675	11.69	514.2	398.31	0.0536	379.6	6.833	12.94	6.60	1.80
	20.36	36.88	75.62	-0.00	0.0676	11.69	514.3	398.41	0.0537	379.8	6.836	12.95	6.61	1.80
	21.36	36.88	75.59	-0.00	0.0676	11.69	514.5	398.71	0.0537	379.4	6.829	12.94	6.59	1.79
	22.36	36.93	75.62	-0.00	0.0675	11.69	514.6	398.67	0.0537	377.4	6.793	12.87	6.52	1.80
	23.35	36.93	75.59	0.00	0.0675	11.70	514.6	398.86	0.0537	379.5	6.831	12.94	6.60	1.80
	24.35	36.87	75.59	0.00	0.0675	11.69	514.5	398.72	0.0535	378.1	6.806	12.89	6.54	1.80
	25.35	36.95	75.62	0.00	0.0675	11.70	514.7	398.85	0.0535	377.7	6.798	12.88	6.53	1.80
	26.36	36.95	75.59	0.00	0.0676	11.70	514.8	399.00	0.0537	379.2	6.825	12.93	6.59	1.80
	27.35	36.95	75.59	0.00	0.0676	11.70	514.7	398.98	0.0540	382.9	6.893	13.06	6.73	1.80
	28.36	36.97	75.59	0.00	0.0675	11.70	514.7	398.95	0.0538	379.9	6.839	12.96	6.62	1.80
	29.34	36.96	75.59	0.00	0.0675	11.69	514.4	398.73	0.0538	380.4	6.846	12.97	6.63	1.80
	30.36	36.96	75.62	0.00	0.0675	11.69	514.4	398.60	0.0541	381.6	6.870	13.01	6.68	1.80
	31.36	36.99	75.62	0.00	0.0675	11.69	514.4	398.62	0.0539	381.4	6.866	13.01	6.67	1.80
	32.37	36.96	75.57	-0.00	0.0675	11.69	514.4	398.86	0.0545	387.0	6.966	13.20	6.88	1.80
	33.34	37.03	75.62	0.00	0.0676	11.69	514.3	398.64	0.0546	388.3	6.989	13.24	6.94	1.80
	34.35	37.01	75.62	0.00	0.0675	11.69	514.3	398.60	0.0543	385.3	6.935	13.14	6.82	1.80
	35.37	37.01	75.57	-0.00	0.0675	11.68	514.1	398.73	0.0543	383.9	6.910	13.10	6.77	1.80
	36.36	37.02	75.59	0.00	0.0675	11.69	514.4	398.78	0.0542	383.8	6.908	13.09	6.76	1.80
	37.36	37.04	75.59	-0.00	0.0675	11.70	514.6	398.99	0.0545	387.3	6.972	13.21	6.90	1.80
	38.35	37.04	75.59	0.00	0.0676	11.70	514.7	399.06	0.0545	386.7	6.960	13.19	6.87	1.80
	39.36	37.06	75.59	0.00	0.0675	11.69	514.2	398.71	0.0543	386.3	6.953	13.18	6.86	1.80
	40.34	37.03	75.59	0.00	0.0675	11.69	514.4	398.81	0.0544	385.7	6.943	13.16	6.84	1.80
	41.37	37.08	75.57	-0.00	0.0675	11.68	514.1	398.78	0.0546	385.4	6.937	13.15	6.83	1.80
	42.35	37.14	75.59	-0.00	0.0675	11.69	514.1	398.77	0.0543	387.1	6.967	13.21	6.90	1.80
	43.35	37.11	75.59	0.00	0.0675	11.68	513.9	398.53	0.0541	383.9	6.909	13.10	6.77	1.80
	44.34	37.12	75.62	0.00	0.0675	11.68	513.9	398.45	0.0547	388.3	6.990	13.25	6.94	1.80
	45.37	37.13	75.62	-0.00	0.0675	11.69	514.2	398.69	0.0546	388.9	7.001	13.27	6.96	1.80
	46.35	37.11	75.62	0.00	0.0675	11.68	513.8	398.36	0.0545	388.2	6.987	13.24	6.93	1.80
	47.35	37.11	75.62	0.00	0.0675	11.67	513.7	398.25	0.0544	385.1	6.931	13.14	6.82	1.80
	48.34	37.11	75.59	0.00	0.0674	11.68	513.9	398.53	0.0545	389.5	7.012	13.29	6.99	1.80
	49.36	37.08	75.62	-0.00	0.0674	11.65	512.8	397.53	0.0544	382.5	6.885	13.05	6.72	1.80
	50.34	37.08	75.59	0.00	0.0675	11.67	513.4	398.15	0.0548	387.4	6.973	13.22	6.90	1.80
	51.34	37.08	75.59	0.00	0.0674	11.67	513.5	398.19	0.0547	389.1	7.003	13.27	6.97	1.80
	52.34	37.11	75.57	0.00	0.0674	11.67	513.5	398.37	0.0548	389.2	7.005	13.28	6.97	1.80
	53.35	37.11	75.59	0.00	0.0675	11.67	513.4	398.18	0.0545	386.7	6.960	13.19	6.88	1.80
	54.35	37.13	75.59	0.00	0.0674	11.66	513.0	397.89	0.0544	385.7	6.942	13.16	6.84	1.80
	55.37	37.11	75.62	-0.00	0.0674	11.66	512.9	397.63	0.0545	385.3	6.936	13.14	6.83	1.80
	56.35	37.13	75.62	0.00	0.0673	11.66	512.9	397.66	0.0542	384.5	6.921	13.12	6.80	1.80
	57.36	37.15	75.59	-0.00	0.0674	11.66	513.2	398.06	0.0547	390.4	7.026	13.32	7.02	1.80
	58.34	37.15	75.62	0.00	0.0674	11.67	513.3	398.03	0.0549	389.2	7.006	13.28	6.98	1.80
	59.44	37.15	75.59	-0.00	0.0674	11.66	513.2	398.02	0.0546	389.0	7.003	13.28	6.97	1.80
	60.36	37.15	75.59	-0.00	0.0674	11.66	513.0	397.90	0.0548	389.5	7.011	13.29	6.99	1.80
	61.36	37.13	75.59	0.00	0.0674	11.66	513.2	398.04	0.0548	388.6	6.996	13.26	6.95	1.80
	62.34	37.13	75.59	0.00	0.0674	11.66	513.1	397.97	0.0543	387.5	6.974	13.22	6.91	1.80
	63.37	37.13	75.57	-0.00	0.0673	11.65	512.8	397.82	0.0544	385.6	6.941	13.16	6.84	1.80
	64.33	37.16	75.59	0.00	0.0674	11.65	512.5	397.54	0.0544	385.2	6.934	13.15	6.83	1.80
	65.36	37.15	75.59	-0.00	0.0673	11.65	512.7	397.65	0.0542	385.2	6.934	13.15	6.83	1.80
	66.35	37.16	75.57	-0.00	0.0673	11.63	511.9	397.18	0.0541	383.4	6.900	13.09	6.76	1.80
	67.36	37.13	75.59	0.00	0.0673	11.63	511.9	397.02	0.0542	383.2	6.898	13.08	6.75	1.80
	68.34	37.14	75.59	0.00	0.0673	11.64	512.2	397.25	0.0541	384.1	6.914	13.11	6.78	1.80
	69.36	37.15	75.59	-0.00	0.0674	11.65	512.5	397.48	0.0546	385.0	6.930	13.14	6.82	1.80
	70.34	37.14	75.62	0.00	0.0673	11.64	512.3	397.20	0.0539	383.5	6.903	13.08	6.76	1.81
	71.36	37.14	75.62	-0.00	0.0674	11.66	513.2	397.94	0.0529	372.3	6.701	12.70	6.33	1.80
	72.34	37.12	75.57	0.00	0.0674	11.65	512.6	397.71	0.0536	377.1	6.788	12.87	6.52	1.80
	73.35	37.13	75.59	-0.00	0.0674	11.65	512.4	397.43	0.0536	380.3	6.846	12.98	6.64	1.80
	74.33	37.15	75.59	0.00	0.0675	11.66	512.9	397.86	0.0546	387.3	6.972	13.22	6.91	1.80
	75.35	37.15	75.62	0.00	0.0674	11.66	513.1	397.86	0.0545	386.7	6.961	13.19	6.88	1.80
	76.33	37.12	75.59	0.00	0.0673	11.65	512.4	397.38	0.0542	384.4	6.919	13.12	6.79	1.80
	77.35	37.18	75.62	0.00	0.0674	11.64	512.3	397.27	0.0542	383.6	6.905	13.09	6.77	1.80
	78.33	37.17	75.62	0.00	0.0673	11.64	512.2	397.13	0.0543	384.6	6.924	13.12	6.80	1.80
	79.34	37.14	75.62	0.00	0.0673	11.63	511.6	396.69	0.0542	383.5	6.902	13.08	6.76	1.80
	80.34	37.15	75.62	0.00	0.0674	11.64	512.1	397.10	0.0546	385.6	6.941	13.16	6.84	1.80
	81.36	37.13	75.62	0.00	0.0673	11.64	512.3	397.20	0.0544	386.4	6.955	13.18	6.87	1.80
	82.35	37.13	75.62	-0.00	0.0673	11.66	512.9	397.63	0.0549	391.7	7.050	13.36	7.07	1.81
	83.34	37.16	75.62	0.00	0.0673	11.65	512.5	397.41	0.0547	390.9	7.036	13.34	7.04	1.80
	84.37	37.13	75.62	0.00	0.0674	11.65	512.6	397.41	0.0545	388.7	6.997	13.26	6.96	1.80
	85.36	37.13	75.62	-0.00	0.0673	11.64	512.4	397.25	0.0541	383.8	6.908	13.09	6.77	1.80
	86.36	37.13	75.62	-0.00	0.0674	11.64	512.2	397.11	0.0543	381.7	6.870	13.02	6.69	1.80
	87.36	37.13	75.59	-0.00	0.0673	11.65	512.7	397.60	0.0540	385.2	6.934	13.15	6.83	1.81
	88.36	37.13	75.59	0.00	0.0673	11.66	513.0	397.90	0.0541	383.8	6.909	13.10	6.77	1.81
	89.34	37.15	75.62	0.00	0.0673	11.64	512.2	397.13	0.0538	379.1	6.824	12.93	6.59	1.81
	90.37	37.18	75.62	0.00	0.0674	11.66	512.9	397.75	0.0548	387.9	6.982	13.23	6.93	1.80
	91.36	37.18	75.54	-0.00	0.0674	11.66	512.8	398.08	0.0542	385.9	6.946	13.18	6.85	1.80
	92.37	37.14	75.62	-0.00	0.0674	11.65	512.5	397.39	0.0543	382.6	6.887	13.05	6.73	1.80
	93.35	37.15	75.62	0.00	0.0674	11.66	513.0	397.74	0.0547	386.8	6.962	13.20	6.89	1.81
	94.36	37.11	75.62	-0.00	0.0673	11.65	512.8	397.53	0.0545	387.1	6.968	13.20	6.89	1.81
	95.35	37.18	75.62	0.00	0.0674	11.65	512.5	397.40	0.0548	386.9	6.964	13.20	6.89	1.81
	96.36	37.18	75.59	0.00	0.0673	11.65	512.6	397.65	0.0548	390.5	7.028	13.33	7.02	1.80
	97.34	37.14	75.67	0.00	0.0673	11.65	512.6	397.19	0.0550	391.0	7.038	13.33	7.04	1.81
	98.34	37.10	75.62	0.00	0.0673	11.64	512.4	397.20	0.0546	387.3	6.972	13.21	6.90	1.81
	99.36	37.18	75.62	-0.00	0.0673	11.64	512.1	397.06	0.0543	384.9	6.927	13.13	6.81	1.81
	100.36	37.15	75.59	-0.00	0.0673	11.64	512.3	397.33	0.0546	388.3	6.990	13.25	6.94	1.81
	101.35	37.13	75.62	-0.00	0.0673	11.63	511.9	396.88	0.0545	386.1	6.949	13.17	6.86	1.80
	102.42	37.10	75.59	0.00	0.0673	11.64	512.3	397.31	0.0548	389.7	7.015	13.30	6.99	1.81
	103.34	37.13	75.62	0.00	0.0673	11.63	511.7	396.76	0.0550	388.9	7.000	13.27	6.96	1.81
	104.35	37.04	75.62	0.00	0.0673	11.65	512.6	397.35	0.0551	395.0	7.111	13.47	7.19	1.81
	105.36	37.13	75.59	-0.00	0.0674	11.65	512.7	397.66	0.0552	394.0	7.092	13.45	7.15	1.81
	106.35	37.12	75.62	0.00	0.0673	11.65	512.4	397.27	0.0550	393.1	7.076	13.41	7.12	1.81
	107.33	37.13	75.59	0.00	0.0673	11.65	512.6	397.58	0.0551	393.8	7.089	13.44	7.15	1.81
	108.34	37.11	75.62	0.00	0.0673	11.64	512.1	397.00	0.0549	390.7	7.032	13.33	7.03	1.81
	109.33	37.13	75.62	0.00	0.0674	11.64	512.3	397.20	0.0551	391.3	7.044	13.35	7.05	1.81
	110.36	37.13	75.59	-0.00	0.0674	11.65	512.8	397.72	0.0552	393.8	7.089	13.44	7.15	1.81
	111.35	37.12	75.59	0.00	0.0674	11.65	512.4	397.39	0.0554	394.9	7.109	13.48	7.19	1.81
	112.34	37.17	75.59	0.00	0.0674	11.66	513.0	397.95	0.0556	397.8	7.160	13.58	7.30	1.81
	113.35	37.17	75.65	0.00	0.0673	11.65	512.7	397.40	0.0559	398.7	7.177	13.60	7.33	1.81
	114.35	37.18	75.62	-0.00	0.0674	11.65	512.7	397.53	0.0558	397.6	7.157	13.57	7.29	1.81
	115.35	37.14	75.59	0.00	0.0673	11.64	512.2	397.27	0.0557	400.7	7.212	13.67	7.40	1.81
	116.33	37.18	75.62	0.00	0.0674	11.65	512.6	397.46	0.0556	397.7	7.158	13.57	7.29	1.81
	117.34	37.20	75.62	0.00	0.0673	11.65	512.6	397.50	0.0558	399.3	7.188	13.63	7.35	1.81
	118.34	37.15	75.59	0.00	0.0674	11.64	512.3	397.39	0.0560	402.2	7.240	13.73	7.46	1.81
	119.36	37.20	75.62	0.00	0.0674	11.64	512.2	397.21	0.0564	406.7	7.320	13.88	7.62	1.81
	120.42	37.19	75.62	0.00	0.0673	11.65	512.7	397.55	0.0561	404.4	7.279	13.80	7.54	1.81
	121.35	37.21	75.62	0.00	0.0673	11.65	512.7	397.58	0.0567	407.3	7.331	13.90	7.64	1.81
	122.35	37.21	75.59	-0.00	0.0674	11.65	512.8	397.81	0.0570	409.9	7.379	13.99	7.74	1.81
