Jul 22 2015 at 15:07:16
Frequency: 1.00Hz.
CO2
Zero:  Value:0.95  Date:18 Mar 2005	 at 07:22:33	
Span:  Value:1.00  Date:18 Mar 2005	 at 07:25:09	
H2O
Zero:  Value:0.71  Date:18 Mar 2005	 at 07:52:31	
Span:  Value:0.99  Date:18 Mar 2005	 at 11:44:01	
	Relative Time	Temperature	Pressure	Aux Input	CO2 Absorptance	CO2 mmol/m3	CO2 mg/m3	CO2 umol/mol	H2O Absorptance	H2O mmol/m3	H2O g/m3	H2O mmol/mol	H2O(°C)	Cooler Voltage
	0.94	35.79	75.62	0.00	0.0693	12.08	531.7	410.43	0.0449	298.2	5.368	10.13	3.09	1.79
	1.94	35.77	75.62	0.00	0.0693	12.08	531.7	410.39	0.0450	299.3	5.388	10.17	3.14	1.79
	2.93	35.74	75.59	0.00	0.0693	12.09	532.0	410.76	0.0450	300.0	5.399	10.19	3.17	1.79
	3.95	35.76	75.59	0.00	0.0693	12.10	532.5	411.16	0.0450	299.9	5.398	10.19	3.17	1.79
	4.96	35.76	75.59	-0.00	0.0693	12.09	531.8	410.62	0.0451	300.2	5.404	10.20	3.19	1.79
	5.94	35.76	75.59	-0.00	0.0691	12.03	529.4	408.80	0.0455	303.1	5.456	10.30	3.32	1.79
	6.94	35.74	75.62	0.00	0.0690	12.04	529.6	408.79	0.0456	304.6	5.483	10.34	3.39	1.79
	7.94	35.73	75.62	0.00	0.0690	12.01	528.5	407.93	0.0457	305.0	5.491	10.36	3.41	1.79
	8.94	35.69	75.59	0.00	0.0690	12.01	528.4	407.93	0.0456	305.6	5.500	10.38	3.43	1.79
	10.03	35.69	75.59	0.00	0.0689	12.01	528.2	407.79	0.0457	306.2	5.511	10.40	3.46	1.79
	10.95	35.72	75.67	0.00	0.0691	12.02	529.0	407.97	0.0459	306.7	5.521	10.41	3.49	1.79
	11.95	35.74	75.67	0.00	0.0698	12.19	536.4	413.73	0.0464	311.5	5.608	10.57	3.71	1.79
	12.96	35.73	75.62	-0.00	0.0697	12.15	534.8	412.77	0.0464	310.3	5.586	10.54	3.65	1.79
	13.95	35.71	75.59	0.00	0.0697	12.17	535.6	413.52	0.0463	310.5	5.588	10.55	3.66	1.79
	14.96	35.74	75.62	0.00	0.0698	12.21	537.0	414.50	0.0464	311.9	5.615	10.59	3.73	1.79
	15.94	35.85	75.62	0.00	0.0697	12.18	536.0	413.81	0.0465	312.2	5.619	10.61	3.74	1.79
	16.96	35.78	75.59	0.00	0.0696	12.18	536.0	413.91	0.0464	312.2	5.620	10.61	3.74	1.79
	17.94	35.78	75.59	0.00	0.0694	12.09	531.9	410.77	0.0463	309.9	5.577	10.53	3.63	1.79
	18.95	35.81	75.62	0.00	0.0698	12.20	536.7	414.31	0.0466	312.5	5.625	10.61	3.75	1.79
	19.95	35.81	75.59	-0.00	0.0697	12.19	536.2	414.10	0.0465	312.7	5.629	10.63	3.77	1.79
	20.95	35.78	75.62	0.00	0.0700	12.24	538.6	415.81	0.0468	315.2	5.673	10.71	3.88	1.79
	22.01	35.83	75.54	0.00	0.0702	12.27	540.0	417.33	0.0470	316.3	5.693	10.76	3.93	1.79
	22.95	35.82	75.62	0.00	0.0704	12.32	542.0	418.46	0.0473	318.6	5.735	10.82	4.03	1.79
	23.95	35.81	75.57	-0.00	0.0701	12.29	540.8	417.82	0.0473	319.2	5.746	10.85	4.06	1.79
	24.95	35.80	75.62	0.00	0.0702	12.31	541.6	418.09	0.0476	322.9	5.813	10.97	4.22	1.79
	25.94	35.77	75.65	-0.00	0.0701	12.29	540.6	417.13	0.0475	321.2	5.781	10.90	4.14	1.79
	26.94	35.80	75.65	0.00	0.0701	12.27	540.1	416.80	0.0475	322.3	5.801	10.94	4.19	1.79
	27.96	35.81	75.62	-0.00	0.0700	12.25	539.2	416.27	0.0476	323.0	5.814	10.97	4.23	1.79
	28.94	35.83	75.65	0.00	0.0700	12.25	539.0	416.00	0.0476	321.9	5.794	10.93	4.18	1.79
	29.95	35.82	75.65	-0.00	0.0699	12.22	537.6	414.88	0.0477	322.9	5.813	10.97	4.22	1.79
	30.93	35.83	75.59	0.00	0.0698	12.21	537.1	414.78	0.0478	323.9	5.830	11.01	4.27	1.79
	31.93	35.84	75.62	0.00	0.0693	12.10	532.4	411.09	0.0468	316.8	5.703	10.76	3.95	1.80
	32.95	35.82	75.62	0.00	0.0693	12.08	531.7	410.46	0.0467	314.3	5.658	10.68	3.84	1.79
	33.93	35.83	75.62	0.00	0.0692	12.07	531.1	410.03	0.0466	313.8	5.648	10.66	3.81	1.79
	35.02	35.83	75.62	-0.00	0.0692	12.07	531.2	410.10	0.0467	313.8	5.648	10.66	3.81	1.79
	35.94	35.83	75.59	0.00	0.0693	12.09	532.0	410.90	0.0467	313.9	5.650	10.67	3.82	1.79
	36.97	35.83	75.65	-0.00	0.0692	12.07	531.1	409.92	0.0479	324.5	5.842	11.02	4.29	1.79
	37.94	35.84	75.62	0.00	0.0691	12.05	530.2	409.33	0.0477	324.7	5.845	11.03	4.30	1.79
	38.97	35.85	75.62	0.00	0.0690	12.04	529.6	408.91	0.0472	318.7	5.736	10.83	4.03	1.79
	40.01	35.87	75.62	0.00	0.0691	12.04	529.7	409.00	0.0468	316.7	5.701	10.76	3.95	1.79
	40.95	35.87	75.62	0.00	0.0690	12.03	529.3	408.69	0.0464	311.4	5.605	10.58	3.71	1.79
	41.95	35.87	75.59	0.00	0.0690	12.04	529.6	409.06	0.0475	317.3	5.711	10.78	3.98	1.79
	42.95	35.84	75.62	0.00	0.0691	12.05	530.0	409.19	0.0475	320.4	5.768	10.89	4.11	1.79
	43.95	35.85	75.62	0.00	0.0689	11.99	527.5	407.27	0.0471	318.4	5.731	10.82	4.02	1.79
	44.94	35.87	75.62	0.00	0.0688	12.00	528.0	407.71	0.0476	322.9	5.813	10.97	4.23	1.79
	45.96	35.88	75.62	-0.00	0.0689	12.00	528.1	407.77	0.0476	323.0	5.815	10.98	4.23	1.79
	46.94	35.86	75.62	0.00	0.0689	12.01	528.5	408.11	0.0471	317.4	5.714	10.78	3.98	1.79
	47.94	35.89	75.65	0.00	0.0689	12.01	528.4	407.92	0.0471	316.9	5.705	10.76	3.96	1.79
	48.94	35.89	75.62	0.00	0.0689	12.01	528.4	408.02	0.0473	318.1	5.726	10.81	4.01	1.79
	49.95	35.89	75.65	0.00	0.0689	11.99	527.4	407.10	0.0478	323.9	5.830	11.00	4.27	1.79
	50.95	35.89	75.62	0.00	0.0689	11.99	527.7	407.50	0.0480	324.8	5.847	11.04	4.31	1.79
	51.95	35.89	75.65	-0.00	0.0688	11.97	526.6	406.49	0.0478	323.0	5.814	10.97	4.23	1.79
	52.95	35.93	75.59	-0.00	0.0688	11.97	526.6	406.86	0.0476	322.2	5.799	10.95	4.19	1.79
	53.95	35.89	75.62	-0.00	0.0689	12.00	528.2	407.86	0.0478	322.7	5.808	10.96	4.22	1.79
	54.96	35.89	75.59	-0.00	0.0688	11.95	526.0	406.30	0.0476	322.4	5.804	10.96	4.20	1.79
	55.93	35.89	75.62	0.00	0.0689	12.01	528.4	408.04	0.0478	324.0	5.832	11.01	4.27	1.79
	56.94	35.89	75.62	0.00	0.0689	11.99	527.6	407.42	0.0480	325.7	5.863	11.07	4.35	1.79
	57.95	35.92	75.62	-0.00	0.0688	11.98	527.3	407.24	0.0480	326.3	5.873	11.09	4.37	1.79
	58.95	35.86	75.62	-0.00	0.0688	11.97	526.9	406.83	0.0479	324.6	5.843	11.03	4.30	1.79
	59.95	35.91	75.62	0.00	0.0688	11.98	527.2	407.12	0.0479	326.0	5.868	11.08	4.36	1.79
	60.93	35.88	75.62	0.00	0.0688	11.99	527.4	407.26	0.0480	327.2	5.889	11.12	4.41	1.80
	61.95	35.89	75.62	0.00	0.0688	11.98	527.2	407.14	0.0482	327.8	5.901	11.14	4.44	1.79
	62.93	35.92	75.62	0.00	0.0686	11.94	525.5	405.82	0.0482	328.5	5.913	11.16	4.47	1.79
	64.02	35.89	75.62	0.00	0.0686	11.92	524.7	405.16	0.0484	328.9	5.920	11.17	4.49	1.79
	64.94	35.92	75.62	-0.00	0.0687	11.95	525.7	406.01	0.0486	331.6	5.970	11.27	4.61	1.79
	65.96	35.89	75.62	-0.00	0.0686	11.94	525.5	405.77	0.0486	331.8	5.972	11.27	4.61	1.80
	66.96	35.88	75.62	0.00	0.0686	11.94	525.2	405.54	0.0484	330.6	5.952	11.23	4.56	1.80
	67.95	35.89	75.59	0.00	0.0687	11.96	526.1	406.41	0.0487	332.4	5.983	11.30	4.64	1.80
	68.95	35.89	75.62	0.00	0.0686	11.94	525.2	405.60	0.0486	332.8	5.990	11.31	4.66	1.79
	69.97	35.86	75.62	0.00	0.0686	11.92	524.3	404.86	0.0486	330.0	5.940	11.21	4.53	1.79
	70.95	35.87	75.65	0.00	0.0684	11.90	523.8	404.29	0.0485	332.1	5.978	11.28	4.63	1.80
	71.96	35.88	75.62	-0.00	0.0683	11.86	521.7	402.83	0.0480	327.6	5.896	11.13	4.43	1.80
	73.02	35.89	75.62	0.00	0.0683	11.88	522.7	403.60	0.0481	327.4	5.893	11.12	4.42	1.79
	73.94	35.92	75.62	0.00	0.0684	11.89	523.1	403.95	0.0481	326.5	5.877	11.10	4.39	1.80
	74.94	35.92	75.62	0.00	0.0684	11.89	523.4	404.18	0.0483	329.0	5.922	11.18	4.49	1.80
	75.94	35.92	75.62	0.00	0.0684	11.89	523.2	404.05	0.0485	328.8	5.918	11.17	4.48	1.79
	76.94	35.92	75.65	0.00	0.0684	11.88	522.6	403.49	0.0482	327.9	5.902	11.14	4.45	1.80
	77.95	35.89	75.62	-0.00	0.0685	11.90	523.8	404.48	0.0482	329.5	5.931	11.20	4.51	1.80
	78.95	35.92	75.59	-0.00	0.0684	11.88	522.9	403.95	0.0483	330.5	5.950	11.24	4.56	1.80
	79.95	35.92	75.62	0.00	0.0685	11.91	524.1	404.72	0.0486	331.3	5.964	11.26	4.59	1.80
	80.93	35.94	75.62	0.00	0.0684	11.90	523.6	404.36	0.0485	330.9	5.956	11.24	4.58	1.80
	82.03	35.92	75.62	-0.00	0.0685	11.91	524.1	404.77	0.0484	329.9	5.938	11.21	4.53	1.80
	82.93	35.93	75.59	0.00	0.0685	11.90	523.7	404.57	0.0484	329.4	5.929	11.20	4.51	1.80
	83.94	35.92	75.62	0.00	0.0684	11.89	523.1	403.97	0.0486	331.3	5.963	11.26	4.59	1.80
	84.96	35.94	75.62	0.00	0.0684	11.90	523.5	404.28	0.0492	336.5	6.056	11.43	4.81	1.80
	85.94	35.92	75.59	0.00	0.0684	11.88	522.9	403.98	0.0492	336.2	6.052	11.43	4.80	1.80
	87.02	35.91	75.59	0.00	0.0685	11.90	523.5	404.41	0.0495	338.9	6.099	11.52	4.92	1.80
	87.94	35.94	75.65	0.00	0.0684	11.89	523.3	404.01	0.0497	340.4	6.127	11.56	4.98	1.80
	88.95	35.92	75.62	0.00	0.0684	11.89	523.0	403.90	0.0495	339.9	6.119	11.55	4.96	1.80
	89.94	35.95	75.62	0.00	0.0684	11.88	522.7	403.71	0.0496	341.1	6.141	11.59	5.01	1.80
	90.95	35.94	75.62	0.00	0.0684	11.90	523.6	404.41	0.0499	343.0	6.174	11.66	5.09	1.80
	91.95	35.94	75.62	-0.00	0.0684	11.89	523.3	404.20	0.0500	343.4	6.181	11.67	5.11	1.80
	92.96	35.93	75.59	-0.00	0.0684	11.88	522.6	403.72	0.0505	347.5	6.255	11.81	5.28	1.80
	93.94	35.94	75.62	-0.00	0.0683	11.85	521.5	402.78	0.0504	347.2	6.250	11.80	5.27	1.80
	94.94	35.94	75.62	0.00	0.0682	11.85	521.5	402.80	0.0501	346.4	6.235	11.77	5.23	1.80
	95.94	35.91	75.59	0.00	0.0682	11.84	520.9	402.42	0.0501	346.1	6.230	11.76	5.22	1.80
	96.94	35.93	75.59	0.00	0.0682	11.81	519.6	401.42	0.0496	339.8	6.116	11.55	4.95	1.80
	97.94	35.92	75.59	0.00	0.0681	11.83	520.5	402.10	0.0496	340.0	6.120	11.56	4.97	1.80
	98.94	35.93	75.62	0.00	0.0681	11.84	520.9	402.28	0.0498	343.1	6.177	11.66	5.10	1.80
	99.93	35.87	75.62	0.00	0.0682	11.84	520.8	402.16	0.0495	338.9	6.100	11.51	4.91	1.80
	100.95	35.94	75.59	0.00	0.0682	11.83	520.4	402.09	0.0496	338.6	6.095	11.51	4.91	1.80
	101.96	35.95	75.59	0.00	0.0680	11.81	519.5	401.38	0.0493	339.1	6.103	11.53	4.93	1.80
	102.96	35.96	75.57	0.00	0.0682	11.84	520.8	402.53	0.0488	334.8	6.027	11.39	4.75	1.80
	103.96	35.90	75.62	-0.00	0.0682	11.84	521.1	402.39	0.0489	332.5	5.985	11.30	4.64	1.80
	104.96	35.93	75.62	-0.00	0.0682	11.84	521.0	402.40	0.0486	332.0	5.977	11.28	4.63	1.80
	105.96	35.96	75.62	-0.00	0.0682	11.85	521.2	402.60	0.0487	332.0	5.976	11.28	4.63	1.80
	106.95	35.91	75.59	-0.00	0.0681	11.82	520.2	401.89	0.0493	337.2	6.070	11.46	4.85	1.80
	107.95	35.94	75.62	-0.00	0.0681	11.83	520.3	401.87	0.0493	336.9	6.065	11.45	4.84	1.80
	108.97	35.94	75.62	-0.00	0.0682	11.83	520.5	402.03	0.0493	339.2	6.106	11.53	4.93	1.80
	109.93	35.93	75.62	0.00	0.0680	11.81	519.7	401.37	0.0493	336.4	6.055	11.43	4.81	1.80
	110.96	35.96	75.62	-0.00	0.0681	11.81	519.6	401.35	0.0502	344.7	6.205	11.72	5.16	1.80
	111.93	35.91	75.59	0.00	0.0680	11.81	519.8	401.53	0.0505	348.2	6.268	11.84	5.31	1.80
	112.94	35.95	75.59	0.00	0.0680	11.82	520.1	401.85	0.0505	350.6	6.311	11.92	5.41	1.80
	114.01	35.98	75.62	0.00	0.0680	11.79	518.8	400.78	0.0503	349.5	6.291	11.88	5.36	1.80
	114.96	35.99	75.59	-0.00	0.0678	11.77	517.7	400.02	0.0502	345.6	6.220	11.75	5.20	1.80
	115.94	35.96	75.59	0.00	0.0680	11.79	518.7	400.77	0.0504	346.8	6.242	11.79	5.25	1.80
	116.95	35.96	75.62	-0.00	0.0679	11.77	518.0	400.13	0.0503	347.4	6.253	11.81	5.27	1.80
	117.94	35.95	75.62	0.00	0.0680	11.81	519.5	401.22	0.0508	352.3	6.341	11.97	5.48	1.80
