Jul 22 2015 at 11:29:01
Frequency: 1.00Hz.
CO2
Zero:  Value:0.95  Date:18 Mar 2005	 at 07:22:33	
Span:  Value:1.00  Date:18 Mar 2005	 at 07:25:09	
H2O
Zero:  Value:0.71  Date:18 Mar 2005	 at 07:52:31	
Span:  Value:0.99  Date:18 Mar 2005	 at 11:44:01	
	Relative Time	Temperature	Pressure	Aux Input	CO2 Absorptance	CO2 mmol/m3	CO2 mg/m3	CO2 umol/mol	H2O Absorptance	H2O mmol/m3	H2O g/m3	H2O mmol/mol	H2O(°C)	Cooler Voltage
	0.61	31.70	73.48	0.00	0.0655	11.34	498.8	391.03	0.0757	624.9	11.248	21.55	13.80	1.70
	1.61	31.71	73.51	0.00	0.0654	11.33	498.5	390.61	0.0754	620.1	11.161	21.38	13.68	1.70
	2.62	31.69	73.51	-0.00	0.0653	11.27	495.8	388.49	0.0760	626.7	11.280	21.61	13.85	1.70
	3.62	31.72	73.51	-0.00	0.0653	11.27	496.0	388.72	0.0759	627.7	11.298	21.64	13.87	1.70
	4.60	31.72	73.51	0.00	0.0654	11.29	496.8	389.36	0.0760	628.7	11.316	21.68	13.90	1.70
	5.60	31.71	73.51	0.00	0.0660	11.37	500.4	392.10	0.0731	601.9	10.835	20.75	13.23	1.70
	6.60	31.74	73.46	0.00	0.0657	11.36	499.9	392.03	0.0735	601.7	10.831	20.76	13.22	1.70
	7.61	31.70	73.51	-0.00	0.0658	11.39	501.1	392.70	0.0738	602.5	10.846	20.78	13.24	1.70
	8.61	31.71	73.51	0.00	0.0658	11.40	501.7	393.12	0.0724	587.6	10.577	20.26	12.86	1.70
	9.62	31.72	73.51	-0.00	0.0658	11.40	501.4	392.93	0.0725	585.7	10.543	20.20	12.81	1.70
	10.70	31.78	73.51	-0.00	0.0657	11.37	500.3	392.17	0.0728	590.7	10.632	20.37	12.94	1.70
	11.62	31.76	73.51	0.00	0.0656	11.35	499.6	391.56	0.0733	595.5	10.719	20.54	13.07	1.70
	12.62	31.77	73.51	-0.00	0.0659	11.39	501.1	392.73	0.0718	579.6	10.433	19.99	12.65	1.70
	13.62	31.76	73.51	-0.00	0.0656	11.40	501.6	393.12	0.0717	576.0	10.368	19.86	12.56	1.70
	14.62	31.78	73.51	-0.00	0.0658	11.41	502.2	393.66	0.0720	580.0	10.439	20.00	12.66	1.70
	15.62	31.75	73.56	-0.00	0.0658	11.40	501.6	392.82	0.0716	576.7	10.381	19.87	12.58	1.70
	16.60	31.79	73.51	0.00	0.0658	11.40	501.7	393.28	0.0716	575.0	10.349	19.83	12.53	1.70
	17.61	31.75	73.51	-0.00	0.0657	11.38	500.8	392.49	0.0715	578.3	10.409	19.94	12.62	1.70
	18.59	31.79	73.51	0.00	0.0656	11.33	498.7	390.88	0.0716	578.1	10.406	19.94	12.62	1.70
	19.62	31.78	73.48	0.00	0.0657	11.38	500.9	392.75	0.0703	563.4	10.142	19.44	12.22	1.70
	20.61	31.80	73.51	-0.00	0.0657	11.38	500.9	392.63	0.0703	558.2	10.048	19.25	12.08	1.70
	21.61	31.80	73.54	0.00	0.0657	11.37	500.4	392.11	0.0707	567.6	10.217	19.57	12.34	1.70
	22.68	31.77	73.48	0.00	0.0658	11.39	501.4	393.10	0.0704	561.4	10.106	19.37	12.17	1.70
	23.60	31.82	73.51	0.00	0.0657	11.38	500.9	392.63	0.0709	568.9	10.241	19.62	12.37	1.70
	24.62	31.84	73.48	0.00	0.0659	11.43	502.7	394.25	0.0702	561.5	10.107	19.38	12.17	1.70
	25.60	31.80	73.51	0.00	0.0659	11.42	502.3	393.73	0.0702	559.5	10.071	19.30	12.12	1.70
	26.60	31.80	73.54	0.00	0.0659	11.42	502.5	393.79	0.0703	560.9	10.097	19.34	12.16	1.70
	27.63	31.81	73.56	-0.00	0.0658	11.40	501.5	392.84	0.0705	564.5	10.160	19.46	12.25	1.70
	28.63	31.77	73.51	-0.00	0.0658	11.40	501.7	393.23	0.0707	564.9	10.169	19.48	12.26	1.70
	29.69	31.79	73.54	0.00	0.0659	11.42	502.4	393.67	0.0703	562.0	10.116	19.38	12.18	1.70
	30.61	31.82	73.48	0.00	0.0659	11.42	502.6	394.10	0.0704	562.6	10.126	19.41	12.20	1.70
	31.61	31.77	73.51	0.00	0.0659	11.42	502.3	393.69	0.0703	560.6	10.090	19.33	12.14	1.70
	32.62	31.79	73.51	-0.00	0.0658	11.41	502.1	393.53	0.0707	566.4	10.194	19.53	12.30	1.70
	33.62	31.82	73.46	-0.00	0.0658	11.41	501.8	393.66	0.0706	564.5	10.161	19.48	12.25	1.70
	34.60	31.84	73.54	0.00	0.0660	11.42	502.6	393.89	0.0704	561.3	10.103	19.35	12.17	1.70
	35.62	31.84	73.51	-0.00	0.0659	11.42	502.5	393.95	0.0704	562.2	10.119	19.39	12.19	1.70
	36.60	31.82	73.48	0.00	0.0657	11.39	501.0	392.88	0.0699	558.0	10.043	19.25	12.08	1.71
	37.61	31.79	73.51	0.00	0.0657	11.38	500.7	392.49	0.0700	557.0	10.026	19.21	12.05	1.70
	38.61	31.84	73.46	0.00	0.0657	11.38	500.8	392.84	0.0699	557.6	10.038	19.25	12.07	1.70
	39.61	31.84	73.48	0.00	0.0659	11.41	502.2	393.86	0.0705	563.0	10.134	19.43	12.21	1.70
	40.69	31.84	73.54	-0.00	0.0659	11.43	502.8	394.02	0.0705	563.1	10.136	19.42	12.22	1.70
	41.60	31.81	73.51	0.00	0.0660	11.44	503.2	394.43	0.0706	564.0	10.153	19.45	12.24	1.71
	42.60	31.83	73.54	0.00	0.0659	11.43	503.1	394.24	0.0704	563.7	10.147	19.44	12.23	1.71
	43.62	31.83	73.54	-0.00	0.0662	11.48	505.1	395.82	0.0712	570.4	10.268	19.67	12.41	1.70
	44.62	31.83	73.53	-0.00	0.0660	11.43	502.8	394.06	0.0708	567.1	10.207	19.55	12.32	1.70
	45.62	31.85	73.48	0.00	0.0658	11.40	501.7	393.45	0.0705	562.7	10.129	19.42	12.21	1.70
	46.60	31.93	73.48	0.00	0.0658	11.40	501.4	393.36	0.0702	560.5	10.089	19.35	12.15	1.71
	47.61	31.90	73.51	0.00	0.0658	11.41	501.8	393.52	0.0703	561.4	10.106	19.37	12.17	1.71
	48.61	31.88	73.51	-0.00	0.0657	11.38	500.8	392.66	0.0702	561.1	10.099	19.36	12.16	1.71
	49.59	31.90	73.51	0.00	0.0658	11.39	501.0	392.87	0.0704	562.1	10.118	19.39	12.19	1.71
	50.62	31.85	73.51	-0.00	0.0659	11.40	501.4	393.12	0.0705	562.3	10.121	19.40	12.20	1.71
	51.60	31.87	73.48	0.00	0.0659	11.41	502.1	393.81	0.0704	562.7	10.128	19.42	12.21	1.71
	52.68	31.88	73.51	0.00	0.0659	11.41	501.9	393.49	0.0705	562.2	10.120	19.40	12.19	1.71
	53.62	31.85	73.51	-0.00	0.0660	11.43	502.7	394.15	0.0706	563.7	10.146	19.44	12.23	1.71
	54.63	31.88	73.54	-0.00	0.0660	11.46	504.1	395.12	0.0708	567.3	10.211	19.56	12.33	1.71
	55.60	31.85	73.51	0.00	0.0659	11.42	502.4	393.84	0.0707	564.5	10.161	19.47	12.26	1.71
	56.61	31.90	73.48	0.00	0.0659	11.41	502.2	393.94	0.0707	563.9	10.150	19.46	12.24	1.71
	57.59	31.85	73.51	0.00	0.0660	11.45	503.7	394.91	0.0708	567.0	10.206	19.56	12.32	1.71
	58.62	31.87	73.51	-0.00	0.0660	11.44	503.4	394.72	0.0709	567.4	10.213	19.57	12.33	1.71
	59.67	31.88	73.51	0.00	0.0659	11.43	502.8	394.21	0.0705	564.8	10.167	19.49	12.27	1.71
	60.59	31.90	73.51	0.00	0.0660	11.45	503.7	394.95	0.0707	566.6	10.199	19.55	12.31	1.71
	61.60	31.90	73.48	0.00	0.0659	11.43	503.0	394.54	0.0707	566.5	10.197	19.55	12.31	1.71
	62.60	31.90	73.54	0.00	0.0658	11.40	501.7	393.23	0.0705	563.5	10.143	19.43	12.23	1.71
	63.62	31.87	73.51	0.00	0.0658	11.41	502.0	393.59	0.0706	564.5	10.161	19.48	12.26	1.71
	64.62	31.90	73.51	-0.00	0.0658	11.40	501.5	393.26	0.0706	564.3	10.158	19.47	12.25	1.71
	65.63	31.90	73.54	-0.00	0.0659	11.41	501.9	393.43	0.0707	565.0	10.170	19.49	12.27	1.71
	66.61	31.90	73.54	-0.00	0.0659	11.42	502.3	393.71	0.0707	566.0	10.188	19.52	12.30	1.71
	67.63	31.91	73.54	-0.00	0.0658	11.40	501.6	393.22	0.0707	565.1	10.172	19.49	12.27	1.71
	68.61	31.87	73.51	-0.00	0.0659	11.41	502.2	393.71	0.0708	566.4	10.196	19.54	12.31	1.71
	69.62	31.89	73.51	-0.00	0.0660	11.44	503.3	394.64	0.0709	568.8	10.238	19.62	12.37	1.71
	70.61	31.92	73.51	0.00	0.0659	11.43	503.1	394.50	0.0710	569.2	10.246	19.64	12.38	1.71
	71.59	31.92	73.54	0.00	0.0660	11.43	502.8	394.13	0.0711	568.8	10.238	19.62	12.37	1.71
	72.62	31.92	73.51	-0.00	0.0658	11.41	501.9	393.61	0.0708	567.1	10.208	19.57	12.33	1.71
	73.59	31.92	73.51	0.00	0.0658	11.39	501.0	392.86	0.0707	565.2	10.173	19.50	12.28	1.71
	74.60	31.92	73.51	0.00	0.0658	11.39	501.3	393.09	0.0707	565.2	10.174	19.50	12.28	1.71
	75.61	31.92	73.51	0.00	0.0659	11.43	502.7	394.23	0.0711	569.8	10.257	19.66	12.40	1.71
	76.61	31.89	73.48	0.00	0.0662	11.46	504.2	395.50	0.0717	574.5	10.341	19.83	12.52	1.72
	77.61	31.92	73.51	0.00	0.0662	11.49	505.4	396.30	0.0719	580.9	10.457	20.04	12.70	1.71
	78.62	31.92	73.54	-0.00	0.0661	11.47	504.7	395.64	0.0718	580.6	10.451	20.03	12.69	1.71
	79.61	31.89	73.51	0.00	0.0660	11.44	503.3	394.66	0.0716	576.8	10.382	19.90	12.58	1.71
	80.62	31.94	73.54	0.00	0.0660	11.44	503.2	394.48	0.0714	574.6	10.343	19.82	12.53	1.72
	81.60	31.89	73.51	0.00	0.0660	11.44	503.3	394.60	0.0715	574.2	10.335	19.81	12.52	1.71
	82.60	31.89	73.51	-0.00	0.0662	11.49	505.6	396.45	0.0723	583.6	10.505	20.14	12.76	1.72
	83.60	31.91	73.56	0.00	0.0661	11.44	503.6	394.58	0.0718	577.9	10.401	19.92	12.61	1.72
	84.60	31.94	73.48	-0.00	0.0661	11.46	504.4	395.69	0.0720	582.6	10.487	20.11	12.74	1.72
	85.60	31.92	73.46	0.00	0.0661	11.47	504.6	395.99	0.0720	580.1	10.441	20.03	12.67	1.72
	86.61	31.96	73.48	-0.00	0.0661	11.48	504.9	396.13	0.0721	581.6	10.469	20.08	12.72	1.72
	87.63	31.93	73.51	-0.00	0.0661	11.48	505.1	396.11	0.0723	584.4	10.518	20.16	12.79	1.72
	88.61	31.93	73.54	0.00	0.0661	11.45	503.6	394.82	0.0719	580.1	10.442	20.01	12.67	1.72
	89.62	31.97	73.48	0.00	0.0660	11.43	502.8	394.51	0.0719	579.5	10.432	20.01	12.66	1.72
	90.61	31.96	73.51	0.00	0.0660	11.46	504.1	395.34	0.0718	581.2	10.461	20.05	12.70	1.72
	91.62	31.95	73.51	0.00	0.0657	11.40	501.5	393.28	0.0713	574.7	10.345	19.83	12.53	1.72
	92.62	31.96	73.51	-0.00	0.0659	11.42	502.4	394.04	0.0718	577.5	10.395	19.93	12.61	1.72
	93.60	31.93	73.51	0.00	0.0662	11.49	505.4	396.34	0.0722	584.1	10.513	20.15	12.78	1.72
	94.60	31.99	73.51	0.00	0.0663	11.51	506.3	397.15	0.0729	593.6	10.686	20.49	13.03	1.72
	95.61	31.94	73.51	0.00	0.0662	11.48	504.9	395.96	0.0726	586.9	10.564	20.25	12.85	1.72
	96.61	31.96	73.51	-0.00	0.0662	11.48	505.2	396.24	0.0726	588.4	10.591	20.30	12.89	1.72
	97.59	31.98	73.54	0.00	0.0662	11.48	505.0	395.95	0.0726	588.2	10.588	20.29	12.89	1.72
	98.61	31.96	73.51	0.00	0.0663	11.50	506.0	396.81	0.0730	590.8	10.634	20.39	12.95	1.72
	99.61	31.98	73.51	0.00	0.0661	11.47	504.6	395.78	0.0725	587.7	10.578	20.28	12.87	1.72
	100.62	32.01	73.51	0.00	0.0663	11.48	505.3	396.36	0.0729	589.6	10.613	20.35	12.93	1.72
	101.60	31.92	73.51	0.00	0.0662	11.50	505.9	396.73	0.0729	592.2	10.659	20.43	12.99	1.72
	102.62	31.96	73.51	0.00	0.0661	11.46	504.3	395.47	0.0725	587.3	10.571	20.27	12.86	1.72
	103.60	32.00	73.51	0.00	0.0660	11.44	503.4	394.87	0.0724	585.0	10.530	20.19	12.81	1.72
	104.63	31.95	73.51	0.00	0.0661	11.46	504.1	395.33	0.0725	585.8	10.545	20.22	12.83	1.72
	105.61	31.98	73.51	0.00	0.0664	11.49	505.7	396.67	0.0731	591.3	10.643	20.40	12.97	1.73
	106.63	31.97	73.51	-0.00	0.0662	11.51	506.5	397.24	0.0730	596.3	10.734	20.58	13.10	1.72
	107.62	31.98	73.56	-0.00	0.0660	11.44	503.4	394.54	0.0727	589.0	10.601	20.31	12.91	1.72
	108.61	31.95	73.51	-0.00	0.0660	11.42	502.7	394.23	0.0727	587.4	10.573	20.27	12.87	1.72
	109.61	31.96	73.56	0.00	0.0662	11.48	505.2	395.94	0.0733	593.4	10.682	20.46	13.02	1.72
	110.59	31.96	73.51	0.00	0.0662	11.47	504.9	395.98	0.0731	592.9	10.672	20.46	13.01	1.73
	111.62	31.98	73.51	0.00	0.0660	11.45	503.9	395.22	0.0728	591.3	10.643	20.41	12.97	1.73
	112.62	31.98	73.51	-0.00	0.0661	11.46	504.3	395.50	0.0730	592.2	10.659	20.44	12.99	1.73
	113.60	31.96	73.54	0.00	0.0662	11.48	505.2	396.10	0.0733	595.0	10.710	20.53	13.06	1.73
	114.69	31.98	73.51	-0.00	0.0661	11.46	504.3	395.54	0.0730	593.7	10.686	20.49	13.03	1.73
	115.60	32.01	73.53	0.00	0.0664	11.51	506.3	397.04	0.0735	596.5	10.737	20.58	13.10	1.72
	116.61	31.98	73.53	0.00	0.0660	11.45	504.0	395.15	0.0728	592.9	10.671	20.45	13.01	1.73
	117.61	31.97	73.51	0.00	0.0660	11.44	503.3	394.77	0.0730	592.3	10.662	20.44	12.99	1.73
	118.62	31.98	73.48	-0.00	0.0662	11.48	505.3	396.48	0.0734	597.0	10.745	20.61	13.11	1.73
	119.61	31.97	73.51	0.00	0.0664	11.51	506.5	397.26	0.0739	601.5	10.827	20.76	13.23	1.73
	120.60	32.00	73.51	0.00	0.0662	11.48	505.3	396.36	0.0734	598.8	10.779	20.67	13.16	1.73
	121.60	31.97	73.51	0.00	0.0661	11.46	504.4	395.65	0.0734	596.7	10.741	20.59	13.11	1.73
	122.60	32.00	73.51	0.00	0.0662	11.47	504.5	395.72	0.0737	598.9	10.779	20.67	13.16	1.73
	123.61	31.95	73.51	0.00	0.0661	11.46	504.2	395.41	0.0734	598.3	10.770	20.65	13.15	1.73
	124.61	31.98	73.51	-0.00	0.0662	11.46	504.4	395.59	0.0737	599.6	10.793	20.69	13.18	1.73
	125.61	32.02	73.54	0.00	0.0664	11.50	506.0	396.76	0.0741	602.7	10.848	20.79	13.26	1.73
	126.61	31.97	73.48	-0.00	0.0663	11.50	506.0	396.98	0.0739	602.8	10.850	20.81	13.26	1.73
	127.61	31.97	73.51	0.00	0.0662	11.48	505.1	396.17	0.0737	601.1	10.819	20.74	13.22	1.73
	128.61	31.97	73.51	0.00	0.0662	11.48	505.0	396.09	0.0737	601.5	10.827	20.76	13.23	1.73
	129.61	32.00	73.46	0.00	0.0664	11.53	507.3	398.21	0.0743	608.8	10.958	21.03	13.42	1.73
	130.60	32.00	73.46	0.00	0.0662	11.49	505.4	396.69	0.0741	605.3	10.896	20.91	13.33	1.73
	131.62	32.00	73.54	0.00	0.0662	11.48	505.1	396.03	0.0742	605.7	10.902	20.90	13.34	1.73
	132.62	32.00	73.48	-0.00	0.0662	11.50	505.9	396.98	0.0743	609.0	10.962	21.03	13.42	1.73
	133.62	32.01	73.54	-0.00	0.0664	11.51	506.6	397.25	0.0745	608.7	10.956	21.00	13.41	1.73
	134.61	31.97	73.48	-0.00	0.0664	11.54	507.8	398.39	0.0745	611.3	11.003	21.10	13.48	1.73
