Jul 22 2015 at 10:47:37
Frequency: 1.00Hz.
CO2
Zero:  Value:0.95  Date:18 Mar 2005	 at 07:22:33	
Span:  Value:1.00  Date:18 Mar 2005	 at 07:25:09	
H2O
Zero:  Value:0.71  Date:18 Mar 2005	 at 07:52:31	
Span:  Value:0.99  Date:18 Mar 2005	 at 11:44:01	
	Relative Time	Temperature	Pressure	Aux Input	CO2 Absorptance	CO2 mmol/m3	CO2 mg/m3	CO2 umol/mol	H2O Absorptance	H2O mmol/m3	H2O g/m3	H2O mmol/mol	H2O(°C)	Cooler Voltage
	0.39	30.50	73.51	0.00	0.0644	11.08	487.3	380.38	0.0836	724.7	13.045	24.89	16.04	1.67
	1.39	30.48	73.48	0.00	0.0647	11.11	489.0	381.78	0.0809	701.9	12.635	24.11	15.54	1.67
	2.40	30.48	73.48	-0.00	0.0645	11.11	488.7	381.56	0.0823	705.5	12.698	24.23	15.62	1.68
	3.46	30.50	73.51	0.00	0.0649	11.12	489.2	381.84	0.0795	702.2	12.640	24.12	15.55	1.67
	4.40	30.46	73.51	-0.00	0.0649	11.21	493.2	384.89	0.0791	668.9	12.041	22.97	14.79	1.67
	5.40	30.48	73.51	0.00	0.0650	11.22	493.6	385.24	0.0788	664.7	11.964	22.83	14.69	1.67
	6.40	30.46	73.48	0.00	0.0654	11.31	497.6	388.49	0.0782	656.0	11.808	22.53	14.49	1.67
	7.38	30.48	73.51	-0.00	0.0653	11.29	496.7	387.64	0.0780	654.5	11.780	22.48	14.45	1.67
	8.38	30.50	73.51	0.00	0.0656	11.36	499.8	390.09	0.0777	648.9	11.680	22.28	14.32	1.68
	9.38	30.46	73.51	0.00	0.0655	11.31	497.8	388.45	0.0783	656.1	11.811	22.53	14.49	1.67
	10.39	30.46	73.46	-0.00	0.0653	11.32	498.0	388.93	0.0784	658.1	11.846	22.61	14.54	1.67
	11.37	30.48	73.51	0.00	0.0655	11.33	498.3	388.92	0.0786	660.0	11.881	22.67	14.58	1.68
	12.40	30.44	73.51	-0.00	0.0651	11.29	496.6	387.55	0.0789	663.9	11.950	22.80	14.67	1.67
	13.40	30.45	73.56	-0.00	0.0651	11.25	494.9	385.96	0.0793	670.8	12.074	23.02	14.83	1.68
	14.40	30.46	73.51	0.00	0.0654	11.29	497.0	387.84	0.0791	665.5	11.979	22.85	14.71	1.68
	15.38	30.44	73.51	0.00	0.0654	11.32	497.9	388.58	0.0789	664.2	11.956	22.81	14.68	1.68
	16.40	30.48	73.48	0.00	0.0654	11.28	496.4	387.58	0.0791	668.6	12.034	22.97	14.78	1.67
	17.38	30.46	73.48	0.00	0.0654	11.29	496.8	387.81	0.0793	669.9	12.059	23.01	14.81	1.68
	18.39	30.48	73.51	0.00	0.0653	11.26	495.7	386.85	0.0796	673.4	12.122	23.13	14.90	1.68
	19.38	30.42	73.51	0.00	0.0654	11.29	496.7	387.60	0.0797	672.1	12.097	23.07	14.86	1.68
	20.39	30.46	73.51	-0.00	0.0654	11.32	498.3	388.85	0.0791	669.1	12.045	22.98	14.80	1.68
	21.39	30.48	73.56	0.00	0.0656	11.35	499.2	389.36	0.0793	671.0	12.078	23.03	14.84	1.68
	22.39	30.48	73.46	-0.00	0.0655	11.30	497.4	388.46	0.0796	673.3	12.119	23.14	14.89	1.68
	23.39	30.47	73.51	0.00	0.0651	11.27	495.7	386.87	0.0798	675.6	12.162	23.20	14.95	1.68
	24.40	30.50	73.51	-0.00	0.0656	11.35	499.3	389.70	0.0799	677.5	12.194	23.27	14.99	1.68
	25.40	30.50	73.51	-0.00	0.0657	11.33	498.6	389.15	0.0800	676.3	12.174	23.23	14.96	1.68
	26.40	30.50	73.49	-0.00	0.0655	11.33	498.6	389.27	0.0798	676.6	12.179	23.25	14.97	1.68
	27.39	30.50	73.46	-0.00	0.0655	11.31	497.5	388.58	0.0801	677.4	12.194	23.28	14.99	1.67
	28.39	30.50	73.51	-0.00	0.0652	11.21	493.0	384.83	0.0799	672.2	12.099	23.09	14.87	1.68
	29.38	30.50	73.51	0.00	0.0655	11.31	497.7	388.50	0.0801	678.7	12.216	23.31	15.02	1.68
	30.47	30.48	73.53	-0.00	0.0652	11.29	496.8	387.61	0.0795	672.7	12.109	23.09	14.88	1.68
	31.39	30.50	73.48	-0.00	0.0654	11.29	496.7	387.81	0.0797	673.0	12.114	23.12	14.89	1.68
	32.39	30.45	73.51	0.00	0.0652	11.29	496.7	387.65	0.0795	673.4	12.122	23.12	14.90	1.68
	33.38	30.50	73.51	0.00	0.0652	11.23	494.3	385.77	0.0796	671.4	12.086	23.06	14.85	1.68
	34.40	30.48	73.48	-0.00	0.0653	11.24	494.7	386.21	0.0796	670.1	12.062	23.02	14.82	1.68
	35.40	30.48	73.49	0.00	0.0653	11.24	494.7	386.20	0.0796	670.4	12.067	23.03	14.83	1.68
	36.40	30.48	73.51	-0.00	0.0653	11.32	498.0	388.67	0.0796	677.1	12.187	23.25	14.98	1.68
	37.39	30.48	73.51	-0.00	0.0653	11.29	496.6	387.62	0.0797	674.4	12.140	23.16	14.92	1.68
	38.39	30.47	73.56	-0.00	0.0656	11.34	498.8	389.01	0.0802	679.5	12.232	23.32	15.04	1.68
	39.41	30.52	73.51	-0.00	0.0655	11.32	498.2	388.88	0.0799	673.9	12.131	23.15	14.91	1.68
	40.37	30.48	73.48	0.00	0.0656	11.39	501.3	391.40	0.0798	684.8	12.327	23.53	15.16	1.68
	41.39	30.50	73.48	0.00	0.0655	11.33	498.6	389.28	0.0800	678.0	12.204	23.29	15.00	1.68
	42.39	30.47	73.51	-0.00	0.0653	11.32	498.0	388.63	0.0797	676.6	12.179	23.23	14.97	1.68
	43.40	30.50	73.51	0.00	0.0657	11.35	499.6	389.97	0.0802	679.6	12.232	23.34	15.04	1.68
	44.38	30.52	73.48	0.00	0.0657	11.34	498.9	389.59	0.0802	679.7	12.234	23.35	15.04	1.68
	45.37	30.52	73.46	0.00	0.0653	11.30	497.0	388.25	0.0795	674.2	12.135	23.17	14.92	1.68
	46.40	30.52	73.51	0.00	0.0655	11.35	499.5	389.89	0.0797	679.2	12.226	23.33	15.03	1.68
	47.38	30.48	73.48	0.00	0.0652	11.25	495.2	386.61	0.0791	667.2	12.009	22.92	14.75	1.68
	48.39	30.52	73.51	0.00	0.0652	11.24	494.5	385.98	0.0792	667.2	12.010	22.92	14.76	1.68
	49.39	30.50	73.54	-0.00	0.0654	11.34	499.1	389.42	0.0796	677.9	12.203	23.27	15.00	1.68
	50.39	30.52	73.51	0.00	0.0654	11.31	497.7	388.51	0.0795	674.1	12.134	23.15	14.91	1.68
	51.39	30.52	73.51	-0.00	0.0655	11.37	500.2	390.48	0.0799	681.5	12.268	23.41	15.08	1.68
	52.39	30.52	73.48	0.00	0.0656	11.35	499.4	389.95	0.0799	679.2	12.226	23.34	15.03	1.68
	53.38	30.52	73.51	0.00	0.0655	11.24	494.4	385.94	0.0799	665.3	11.975	22.85	14.71	1.68
	54.38	30.50	73.51	0.00	0.0652	11.31	497.7	388.47	0.0792	675.2	12.153	23.19	14.94	1.68
	55.40	30.54	73.51	-0.00	0.0658	11.36	500.0	390.28	0.0801	678.4	12.211	23.30	15.01	1.68
	56.40	30.52	73.51	0.00	0.0657	11.36	499.8	390.13	0.0796	672.1	12.098	23.08	14.87	1.68
	57.38	30.52	73.54	0.00	0.0658	11.42	502.3	391.96	0.0797	673.4	12.122	23.12	14.90	1.68
	58.39	30.50	73.51	-0.00	0.0660	11.38	500.9	390.93	0.0800	671.9	12.095	23.08	14.86	1.68
	59.37	30.50	73.51	0.00	0.0659	11.43	502.7	392.41	0.0799	673.2	12.118	23.12	14.89	1.68
	60.39	30.50	73.51	0.00	0.0660	11.42	502.5	392.20	0.0802	677.3	12.191	23.26	14.99	1.68
	61.40	30.52	73.51	-0.00	0.0655	11.30	497.4	388.24	0.0790	667.3	12.011	22.92	14.76	1.68
	62.38	30.50	73.51	0.00	0.0659	11.43	502.7	392.38	0.0795	669.5	12.051	22.99	14.81	1.68
	63.40	30.53	73.48	-0.00	0.0657	11.38	500.5	390.86	0.0793	671.6	12.089	23.08	14.86	1.68
	64.38	30.57	73.51	0.00	0.0657	11.37	500.1	390.46	0.0794	669.0	12.042	22.98	14.80	1.68
	65.40	30.52	73.53	-0.00	0.0660	11.44	503.2	392.66	0.0796	670.6	12.071	23.02	14.83	1.68
	66.39	30.52	73.51	-0.00	0.0661	11.43	503.0	392.61	0.0798	674.1	12.134	23.15	14.91	1.68
	67.47	30.51	73.51	-0.00	0.0659	11.41	501.9	391.72	0.0793	669.7	12.055	23.00	14.81	1.68
	68.38	30.53	73.48	0.00	0.0659	11.41	502.2	392.14	0.0794	671.0	12.078	23.05	14.84	1.68
	69.39	30.55	73.54	0.00	0.0659	11.44	503.2	392.67	0.0794	671.8	12.092	23.07	14.86	1.68
	70.39	30.56	73.51	-0.00	0.0655	11.38	500.6	390.81	0.0791	670.7	12.072	23.04	14.84	1.68
	71.40	30.52	73.48	0.00	0.0658	11.40	501.5	391.55	0.0794	671.0	12.078	23.05	14.84	1.68
	72.46	30.55	73.51	0.00	0.0658	11.35	499.3	389.76	0.0794	668.3	12.030	22.96	14.78	1.68
	73.40	30.56	73.48	-0.00	0.0656	11.37	500.2	390.61	0.0791	668.8	12.038	22.98	14.79	1.68
	74.40	30.55	73.48	0.00	0.0659	11.36	500.0	390.47	0.0794	668.6	12.036	22.97	14.79	1.68
	75.38	30.53	73.48	0.00	0.0660	11.40	501.8	391.82	0.0795	671.2	12.081	23.06	14.85	1.68
	76.39	30.52	73.51	-0.00	0.0658	11.43	503.0	392.59	0.0793	671.5	12.087	23.06	14.85	1.68
	77.39	30.52	73.54	0.00	0.0659	11.36	499.8	389.99	0.0791	663.3	11.940	22.77	14.66	1.68
	78.38	30.52	73.51	0.00	0.0660	11.47	504.9	394.08	0.0796	676.0	12.169	23.22	14.96	1.68
	79.39	30.55	73.51	-0.00	0.0659	11.42	502.4	392.25	0.0795	672.0	12.097	23.08	14.87	1.68
	80.40	30.53	73.51	0.00	0.0657	11.34	499.1	389.58	0.0793	664.9	11.968	22.84	14.70	1.68
	81.39	30.53	73.51	-0.00	0.0661	11.44	503.2	392.82	0.0796	673.5	12.123	23.13	14.90	1.68
	82.38	30.56	73.51	0.00	0.0659	11.41	502.1	392.00	0.0791	670.5	12.070	23.03	14.83	1.68
	83.46	30.53	73.48	0.00	0.0655	11.36	499.7	390.21	0.0787	664.4	11.960	22.83	14.69	1.68
	84.40	30.57	73.51	0.00	0.0658	11.35	499.6	390.01	0.0791	663.2	11.938	22.78	14.66	1.69
	85.39	30.53	73.51	-0.00	0.0662	11.50	505.9	394.90	0.0800	678.0	12.205	23.29	15.01	1.68
	86.38	30.59	73.51	0.00	0.0660	11.44	503.2	392.84	0.0797	674.0	12.131	23.15	14.91	1.68
	87.39	30.53	73.51	-0.00	0.0659	11.46	504.0	393.45	0.0793	674.6	12.144	23.17	14.93	1.68
	88.39	30.56	73.48	0.00	0.0660	11.47	504.5	394.02	0.0794	674.0	12.132	23.16	14.91	1.68
	89.41	30.53	73.51	-0.00	0.0661	11.49	505.4	394.50	0.0796	674.2	12.135	23.16	14.92	1.69
	90.39	30.58	73.56	0.00	0.0664	11.51	506.5	395.16	0.0799	676.3	12.173	23.21	14.97	1.69
	91.40	30.53	73.48	-0.00	0.0661	11.43	503.0	392.80	0.0794	668.3	12.030	22.96	14.78	1.68
	92.40	30.56	73.54	0.00	0.0661	11.48	505.2	394.23	0.0792	670.6	12.072	23.03	14.84	1.68
	93.40	30.56	73.51	-0.00	0.0660	11.44	503.2	392.82	0.0792	669.3	12.048	22.99	14.81	1.69
	94.38	30.53	73.51	0.00	0.0663	11.48	505.3	394.41	0.0796	673.8	12.129	23.14	14.91	1.69
	95.39	30.55	73.51	-0.00	0.0662	11.48	504.9	394.19	0.0795	672.3	12.102	23.09	14.87	1.69
	96.39	30.58	73.48	-0.00	0.0661	11.46	504.0	393.66	0.0794	670.6	12.072	23.05	14.84	1.69
	97.38	30.55	73.51	0.00	0.0663	11.49	505.4	394.59	0.0796	671.4	12.085	23.06	14.85	1.68
	98.38	30.59	73.51	0.00	0.0662	11.52	506.7	395.60	0.0794	673.6	12.125	23.14	14.91	1.69
	99.40	30.55	73.51	-0.00	0.0663	11.50	506.2	395.19	0.0792	670.7	12.072	23.04	14.84	1.69
	100.39	30.55	73.54	0.00	0.0664	11.51	506.6	395.33	0.0795	671.2	12.081	23.05	14.85	1.69
	101.39	30.58	73.56	0.00	0.0663	11.51	506.3	395.03	0.0785	660.3	11.886	22.67	14.60	1.69
	102.38	30.57	73.48	0.00	0.0662	11.49	505.5	394.79	0.0787	660.6	11.890	22.70	14.60	1.69
	103.38	30.53	73.48	-0.00	0.0662	11.48	505.3	394.58	0.0792	665.1	11.972	22.85	14.71	1.69
	104.40	30.55	73.54	-0.00	0.0659	11.45	503.9	393.21	0.0785	661.2	11.901	22.70	14.61	1.69
	105.41	30.58	73.51	-0.00	0.0663	11.52	507.1	395.89	0.0792	668.3	12.029	22.96	14.78	1.69
	106.39	30.56	73.51	-0.00	0.0661	11.52	507.0	395.83	0.0786	666.9	12.004	22.91	14.75	1.69
	107.39	30.58	73.54	-0.00	0.0663	11.49	505.7	394.67	0.0791	667.0	12.006	22.91	14.75	1.69
	108.39	30.58	73.51	-0.00	0.0661	11.51	506.5	395.46	0.0788	666.8	12.002	22.91	14.75	1.69
	109.37	30.51	73.51	0.00	0.0661	11.48	505.1	394.28	0.0790	667.6	12.016	22.93	14.76	1.69
	110.39	30.56	73.51	-0.00	0.0659	11.42	502.3	392.11	0.0788	662.3	11.921	22.75	14.64	1.69
	111.37	30.56	73.48	0.00	0.0661	11.50	506.2	395.29	0.0787	663.6	11.945	22.80	14.67	1.69
	112.40	30.57	73.54	0.00	0.0662	11.47	504.8	393.97	0.0789	664.4	11.959	22.82	14.69	1.69
	113.38	30.55	73.51	0.00	0.0663	11.51	506.6	395.49	0.0790	667.1	12.008	22.91	14.75	1.69
	114.38	30.59	73.51	0.00	0.0662	11.51	506.5	395.46	0.0789	666.6	11.999	22.90	14.74	1.69
	115.38	30.55	73.48	0.00	0.0661	11.49	505.4	394.66	0.0788	665.8	11.985	22.88	14.72	1.69
	116.38	30.55	73.48	0.00	0.0661	11.44	503.2	393.00	0.0788	662.0	11.917	22.75	14.64	1.69
	117.39	30.58	73.51	0.00	0.0660	11.41	502.2	392.07	0.0786	659.8	11.876	22.67	14.58	1.69
