Jul 22 2015 at 15:52:40
Frequency: 1.00Hz.
CO2
Zero:  Value:0.95  Date:18 Mar 2005	 at 07:22:33	
Span:  Value:1.00  Date:18 Mar 2005	 at 07:25:09	
H2O
Zero:  Value:0.71  Date:18 Mar 2005	 at 07:52:31	
Span:  Value:0.99  Date:18 Mar 2005	 at 11:44:01	
	Relative Time	Temperature	Pressure	Aux Input	CO2 Absorptance	CO2 mmol/m3	CO2 mg/m3	CO2 umol/mol	H2O Absorptance	H2O mmol/m3	H2O g/m3	H2O mmol/mol	H2O(°C)	Cooler Voltage
	0.47	37.12	75.59	-0.00	0.0665	11.46	504.1	390.97	0.0658	499.6	8.992	17.05	10.67	1.71
	1.45	37.19	75.62	0.00	0.0670	11.53	507.5	393.52	0.0627	481.6	8.669	16.43	10.12	1.72
	2.46	37.17	75.62	-0.00	0.0670	11.56	508.6	394.33	0.0628	470.4	8.468	16.05	9.77	1.71
	3.46	37.18	75.62	-0.00	0.0673	11.66	513.2	397.98	0.0592	423.3	7.620	14.44	8.21	1.71
	4.46	37.19	75.65	-0.00	0.0674	11.65	512.7	397.46	0.0583	422.5	7.606	14.41	8.18	1.71
	5.46	37.15	75.59	-0.00	0.0674	11.65	512.5	397.52	0.0583	425.4	7.657	14.52	8.28	1.71
	6.44	37.12	75.59	0.00	0.0675	11.67	513.4	398.19	0.0578	421.4	7.585	14.38	8.14	1.71
	7.46	37.15	75.59	-0.00	0.0675	11.68	514.0	398.64	0.0567	413.6	7.445	14.12	7.87	1.72
	8.52	37.13	75.59	0.00	0.0675	11.67	513.3	398.10	0.0571	420.2	7.563	14.34	8.10	1.71
	9.45	37.05	75.59	0.00	0.0675	11.70	514.6	399.02	0.0566	403.8	7.268	13.78	7.51	1.71
	10.51	37.04	75.59	0.00	0.0675	11.69	514.4	398.82	0.0554	397.7	7.158	13.57	7.28	1.71
	11.45	37.04	75.59	-0.00	0.0676	11.71	515.1	399.37	0.0555	395.2	7.114	13.48	7.20	1.71
	12.51	37.02	75.59	0.00	0.0676	11.70	514.7	399.05	0.0553	397.9	7.163	13.57	7.29	1.72
	13.46	37.02	75.62	0.00	0.0676	11.71	515.1	399.23	0.0555	397.4	7.153	13.55	7.27	1.72
	14.45	36.95	75.62	-0.00	0.0676	11.69	514.6	398.72	0.0556	399.2	7.186	13.61	7.34	1.71
	15.44	36.99	75.59	0.00	0.0677	11.70	515.0	399.26	0.0555	397.0	7.146	13.54	7.26	1.72
	16.44	36.94	75.57	0.00	0.0676	11.69	514.6	398.96	0.0561	402.2	7.239	13.72	7.44	1.71
	17.46	37.02	75.59	0.00	0.0676	11.70	514.8	399.15	0.0559	401.4	7.225	13.69	7.42	1.72
	18.45	37.04	75.59	0.00	0.0675	11.68	513.9	398.47	0.0560	405.9	7.307	13.85	7.59	1.72
	19.45	37.08	75.59	0.00	0.0676	11.68	514.1	398.66	0.0558	399.7	7.195	13.64	7.36	1.72
	20.45	37.13	75.62	0.00	0.0675	11.69	514.3	398.74	0.0560	402.7	7.249	13.74	7.47	1.72
	21.45	37.14	75.59	0.00	0.0675	11.69	514.3	398.89	0.0562	403.4	7.262	13.77	7.50	1.72
	22.45	37.18	75.59	0.00	0.0675	11.67	513.7	398.45	0.0564	405.2	7.293	13.83	7.56	1.72
	23.45	37.18	75.59	0.00	0.0675	11.68	513.7	398.51	0.0568	407.5	7.335	13.91	7.65	1.72
	24.46	37.20	75.62	0.00	0.0674	11.68	513.8	398.44	0.0569	409.7	7.375	13.98	7.73	1.72
	25.52	37.22	75.59	0.00	0.0674	11.67	513.7	398.52	0.0567	409.8	7.377	13.99	7.73	1.72
	26.47	37.24	75.62	-0.00	0.0675	11.67	513.7	398.42	0.0572	412.2	7.419	14.07	7.82	1.72
	27.52	37.29	75.59	0.00	0.0674	11.67	513.5	398.46	0.0574	415.3	7.475	14.18	7.93	1.72
	28.47	37.24	75.59	-0.00	0.0674	11.67	513.4	398.36	0.0574	416.1	7.489	14.20	7.96	1.72
	29.52	37.24	75.59	0.00	0.0674	11.66	513.2	398.16	0.0575	416.0	7.488	14.20	7.95	1.72
	30.45	37.23	75.59	0.00	0.0674	11.66	513.0	398.03	0.0575	416.6	7.500	14.22	7.98	1.72
	31.45	37.21	75.59	0.00	0.0675	11.67	513.4	398.25	0.0574	416.7	7.501	14.22	7.98	1.72
	32.45	37.26	75.59	0.00	0.0673	11.66	512.9	397.99	0.0574	415.9	7.485	14.20	7.95	1.72
	33.45	37.27	75.59	0.00	0.0673	11.66	513.0	398.07	0.0574	416.2	7.492	14.21	7.96	1.72
	34.45	37.29	75.59	0.00	0.0675	11.67	513.5	398.47	0.0577	417.6	7.517	14.26	8.01	1.72
	35.44	37.31	75.59	0.00	0.0674	11.67	513.5	398.51	0.0575	417.3	7.511	14.25	8.00	1.72
	36.44	37.31	75.59	0.00	0.0675	11.67	513.5	398.48	0.0575	417.2	7.509	14.24	8.00	1.72
	37.46	37.31	75.57	0.00	0.0674	11.66	513.0	398.27	0.0575	417.4	7.512	14.26	8.01	1.72
	38.44	37.31	75.62	0.00	0.0674	11.67	513.3	398.23	0.0576	418.4	7.531	14.28	8.04	1.72
	39.45	37.34	75.59	0.00	0.0673	11.66	513.1	398.24	0.0578	418.2	7.528	14.28	8.04	1.72
	40.44	37.36	75.59	0.00	0.0674	11.66	512.9	398.10	0.0579	420.1	7.561	14.35	8.10	1.72
	41.47	37.34	75.59	-0.00	0.0674	11.66	513.1	398.20	0.0579	420.7	7.573	14.37	8.12	1.72
	42.45	37.33	75.59	-0.00	0.0674	11.65	512.8	397.98	0.0581	422.7	7.609	14.43	8.19	1.72
	43.45	37.34	75.62	0.00	0.0674	11.65	512.4	397.53	0.0587	427.6	7.697	14.60	8.36	1.72
	44.45	37.34	75.59	0.00	0.0673	11.64	512.4	397.65	0.0593	434.3	7.818	14.83	8.59	1.72
	45.44	37.34	75.59	0.00	0.0673	11.64	512.2	397.53	0.0591	432.3	7.781	14.76	8.52	1.72
	46.44	37.35	75.57	0.00	0.0673	11.65	512.4	397.85	0.0589	429.1	7.724	14.66	8.42	1.72
	47.44	37.36	75.59	0.00	0.0673	11.64	512.3	397.63	0.0594	435.8	7.844	14.88	8.64	1.72
	48.44	37.38	75.62	0.00	0.0673	11.64	512.1	397.36	0.0597	437.4	7.873	14.93	8.70	1.72
	49.47	37.38	75.62	-0.00	0.0673	11.64	512.3	397.52	0.0598	439.6	7.913	15.01	8.78	1.72
	50.45	37.37	75.59	-0.00	0.0673	11.64	512.2	397.58	0.0597	440.6	7.930	15.05	8.81	1.72
	51.45	37.43	75.59	0.00	0.0673	11.64	512.1	397.56	0.0599	440.3	7.926	15.04	8.80	1.72
	52.45	37.45	75.62	0.00	0.0673	11.63	511.9	397.28	0.0598	439.5	7.912	15.01	8.78	1.73
	53.46	37.45	75.62	-0.00	0.0672	11.63	511.6	397.09	0.0598	440.4	7.927	15.04	8.80	1.73
	54.48	37.47	75.59	-0.00	0.0672	11.63	511.8	397.35	0.0596	437.1	7.868	14.93	8.69	1.72
	55.46	37.42	75.59	-0.00	0.0672	11.62	511.3	396.92	0.0597	439.9	7.918	15.02	8.79	1.73
	56.47	37.43	75.62	-0.00	0.0672	11.62	511.2	396.72	0.0596	437.7	7.879	14.95	8.71	1.72
	57.44	37.42	75.59	0.00	0.0672	11.61	510.9	396.59	0.0594	437.8	7.881	14.95	8.72	1.72
	58.45	37.40	75.62	0.00	0.0672	11.62	511.1	396.60	0.0592	435.2	7.834	14.86	8.63	1.73
	59.45	37.39	75.59	0.00	0.0671	11.62	511.1	396.76	0.0581	424.7	7.645	14.51	8.27	1.73
	60.48	37.35	75.59	-0.00	0.0671	11.58	509.7	395.61	0.0589	435.4	7.837	14.87	8.63	1.73
	61.51	37.36	75.57	0.00	0.0672	11.60	510.5	396.39	0.0588	428.4	7.711	14.64	8.39	1.72
	62.46	37.33	75.57	-0.00	0.0671	11.60	510.4	396.25	0.0592	434.0	7.811	14.82	8.58	1.73
	63.45	37.31	75.54	0.00	0.0672	11.61	510.7	396.62	0.0587	428.4	7.712	14.64	8.39	1.73
	64.44	37.29	75.59	0.00	0.0671	11.60	510.4	396.04	0.0598	442.8	7.971	15.12	8.88	1.73
	65.44	37.34	75.59	-0.00	0.0672	11.61	511.0	396.62	0.0580	438.1	7.887	14.96	8.72	1.73
	66.44	37.34	75.59	0.00	0.0673	11.63	511.6	397.07	0.0573	417.1	7.508	14.24	8.00	1.73
	67.45	37.34	75.57	-0.00	0.0673	11.63	511.7	397.29	0.0557	402.4	7.243	13.75	7.47	1.73
	68.45	37.29	75.59	-0.00	0.0672	11.62	511.4	396.85	0.0566	403.8	7.269	13.79	7.52	1.73
	69.45	37.24	75.59	0.00	0.0672	11.63	511.8	397.09	0.0564	404.9	7.289	13.82	7.56	1.73
	70.45	37.22	75.62	-0.00	0.0672	11.63	511.8	396.90	0.0575	414.8	7.466	14.15	7.91	1.73
	71.45	37.24	75.59	0.00	0.0672	11.63	511.8	397.08	0.0573	416.0	7.489	14.20	7.96	1.73
	72.43	37.23	75.59	0.00	0.0672	11.62	511.4	396.78	0.0567	408.7	7.357	13.95	7.70	1.73
	73.44	37.20	75.59	0.00	0.0672	11.63	511.7	396.98	0.0557	399.8	7.197	13.65	7.37	1.73
	74.44	37.17	75.62	0.00	0.0672	11.61	510.8	396.11	0.0571	412.8	7.431	14.08	7.84	1.73
	75.46	37.20	75.62	0.00	0.0672	11.61	510.8	396.08	0.0571	416.5	7.497	14.21	7.97	1.73
	76.46	37.18	75.59	0.00	0.0672	11.63	511.8	397.00	0.0567	409.5	7.371	13.98	7.72	1.73
	77.45	37.18	75.57	0.00	0.0672	11.62	511.1	396.61	0.0565	408.2	7.348	13.94	7.67	1.73
	78.45	37.15	75.59	-0.00	0.0671	11.61	510.9	396.25	0.0566	408.2	7.347	13.93	7.67	1.73
	79.45	37.13	75.62	0.00	0.0672	11.61	510.8	396.00	0.0569	411.2	7.401	14.03	7.78	1.73
	80.53	37.13	75.59	0.00	0.0671	11.60	510.2	395.69	0.0569	408.1	7.346	13.93	7.67	1.73
	81.46	37.12	75.59	0.00	0.0670	11.60	510.3	395.79	0.0574	414.8	7.467	14.16	7.91	1.73
	82.45	37.10	75.62	0.00	0.0671	11.59	510.0	395.34	0.0572	413.6	7.444	14.11	7.86	1.73
	83.44	37.12	75.59	0.00	0.0671	11.60	510.6	395.97	0.0571	412.3	7.422	14.07	7.82	1.73
	84.46	37.13	75.65	0.00	0.0671	11.60	510.3	395.49	0.0578	419.8	7.556	14.32	8.08	1.73
	85.44	37.14	75.59	0.00	0.0671	11.59	510.1	395.61	0.0579	422.7	7.608	14.42	8.18	1.73
	86.46	37.18	75.59	0.00	0.0672	11.60	510.5	396.00	0.0571	414.0	7.453	14.13	7.88	1.73
	87.45	37.13	75.59	-0.00	0.0671	11.61	510.8	396.13	0.0573	414.5	7.460	14.14	7.89	1.73
	88.45	37.13	75.57	0.00	0.0672	11.60	510.5	396.04	0.0574	417.0	7.505	14.23	7.98	1.73
	89.45	37.07	75.59	-0.00	0.0672	11.60	510.5	395.88	0.0577	417.6	7.517	14.25	8.00	1.73
	90.47	37.08	75.62	-0.00	0.0671	11.60	510.4	395.65	0.0580	420.8	7.574	14.35	8.12	1.73
	91.45	37.08	75.59	-0.00	0.0672	11.60	510.3	395.72	0.0580	420.9	7.576	14.36	8.12	1.73
	92.45	37.10	75.59	0.00	0.0671	11.60	510.2	395.69	0.0577	419.0	7.542	14.30	8.05	1.73
	93.44	37.11	75.62	-0.00	0.0672	11.61	510.7	395.96	0.0577	419.2	7.546	14.30	8.06	1.73
	94.44	37.11	75.59	0.00	0.0671	11.61	510.8	396.16	0.0576	418.6	7.535	14.28	8.04	1.73
	95.46	37.08	75.62	-0.00	0.0671	11.60	510.3	395.61	0.0579	421.0	7.577	14.36	8.12	1.73
	96.45	37.06	75.59	-0.00	0.0671	11.60	510.2	395.62	0.0577	418.2	7.528	14.27	8.02	1.73
	97.45	37.04	75.59	0.00	0.0670	11.59	509.9	395.31	0.0577	418.4	7.531	14.27	8.03	1.73
	98.44	37.04	75.59	0.00	0.0671	11.59	509.8	395.28	0.0581	418.9	7.540	14.29	8.05	1.73
	99.51	37.04	75.59	0.00	0.0672	11.62	511.1	396.29	0.0584	424.6	7.643	14.49	8.25	1.74
	100.45	37.01	75.59	0.00	0.0672	11.60	510.5	395.75	0.0583	426.2	7.671	14.54	8.30	1.74
	101.45	37.04	75.59	0.00	0.0671	11.60	510.4	395.72	0.0583	424.5	7.641	14.48	8.24	1.73
	102.43	37.04	75.59	0.00	0.0671	11.58	509.5	395.08	0.0583	424.2	7.635	14.47	8.23	1.73
	103.44	37.05	75.62	0.00	0.0672	11.60	510.5	395.68	0.0584	425.0	7.651	14.50	8.26	1.73
	104.44	37.05	75.59	0.00	0.0670	11.59	509.8	395.28	0.0584	425.8	7.664	14.53	8.29	1.74
	105.46	37.11	75.59	-0.00	0.0671	11.59	509.8	395.36	0.0583	424.7	7.644	14.49	8.25	1.74
	106.47	37.11	75.62	-0.00	0.0670	11.59	510.0	395.35	0.0586	428.8	7.718	14.63	8.39	1.74
	107.47	37.15	75.62	-0.00	0.0670	11.58	509.6	395.16	0.0589	430.0	7.740	14.67	8.44	1.74
	108.47	37.18	75.62	-0.00	0.0672	11.61	511.0	396.27	0.0588	430.7	7.753	14.70	8.46	1.74
	109.47	37.17	75.62	-0.00	0.0671	11.58	509.6	395.16	0.0585	425.8	7.664	14.53	8.29	1.74
	110.46	37.18	75.54	-0.00	0.0671	11.60	510.6	396.34	0.0587	429.0	7.722	14.65	8.40	1.74
	111.46	37.18	75.59	-0.00	0.0671	11.60	510.3	395.81	0.0588	429.8	7.736	14.67	8.43	1.74
	112.46	37.18	75.59	0.00	0.0671	11.60	510.3	395.84	0.0586	428.9	7.720	14.64	8.40	1.74
	113.46	37.19	75.62	0.00	0.0671	11.59	510.2	395.60	0.0584	427.1	7.687	14.57	8.34	1.74
	114.52	37.23	75.59	0.00	0.0671	11.58	509.3	395.14	0.0577	418.2	7.527	14.28	8.03	1.74
	115.44	37.28	75.57	0.00	0.0671	11.59	509.8	395.68	0.0581	421.6	7.588	14.40	8.15	1.74
	116.52	37.27	75.59	0.00	0.0671	11.59	510.1	395.79	0.0579	419.5	7.551	14.32	8.08	1.74
	117.44	37.29	75.59	0.00	0.0672	11.60	510.4	396.07	0.0578	420.5	7.568	14.36	8.11	1.74
	118.45	37.29	75.62	-0.00	0.0671	11.60	510.4	395.93	0.0582	423.9	7.630	14.47	8.23	1.74
	119.43	37.26	75.59	0.00	0.0671	11.60	510.3	395.93	0.0581	423.8	7.628	14.47	8.23	1.74
	120.45	37.29	75.65	0.00	0.0670	11.58	509.5	395.09	0.0582	424.2	7.636	14.47	8.24	1.74
	121.46	37.29	75.62	-0.00	0.0671	11.58	509.7	395.38	0.0584	425.7	7.662	14.53	8.29	1.74
