Jul 22 2015 at 14:35:01
Frequency: 1.00Hz.
CO2
Zero:  Value:0.95  Date:18 Mar 2005	 at 07:22:33	
Span:  Value:1.00  Date:18 Mar 2005	 at 07:25:09	
H2O
Zero:  Value:0.71  Date:18 Mar 2005	 at 07:52:31	
Span:  Value:0.99  Date:18 Mar 2005	 at 11:44:01	
	Relative Time	Temperature	Pressure	Aux Input	CO2 Absorptance	CO2 mmol/m3	CO2 mg/m3	CO2 umol/mol	H2O Absorptance	H2O mmol/m3	H2O g/m3	H2O mmol/mol	H2O(°C)	Cooler Voltage
	0.22	32.95	75.65	-0.00	0.0677	11.75	517.1	395.36	0.0614	450.9	8.117	15.17	8.94	1.71
	1.22	33.00	75.62	0.00	0.0680	11.80	519.0	397.05	0.0564	419.7	7.555	14.13	7.88	1.71
	2.21	33.02	75.62	0.00	0.0680	11.77	518.1	396.36	0.0583	422.0	7.596	14.21	7.96	1.71
	3.21	33.02	75.59	0.00	0.0679	11.78	518.4	396.70	0.0579	420.3	7.566	14.15	7.90	1.71
	4.23	33.00	75.59	-0.00	0.0679	11.77	517.9	396.32	0.0566	406.8	7.322	13.70	7.43	1.71
	5.21	33.04	75.62	0.00	0.0679	11.76	517.6	396.02	0.0557	401.1	7.220	13.50	7.22	1.71
	6.22	33.04	75.62	0.00	0.0679	11.78	518.1	396.40	0.0557	400.7	7.213	13.49	7.21	1.71
	7.22	33.07	75.62	-0.00	0.0677	11.74	516.7	395.35	0.0562	402.9	7.252	13.56	7.29	1.71
	8.24	33.06	75.65	-0.00	0.0676	11.70	515.0	393.87	0.0597	437.1	7.868	14.71	8.48	1.71
	9.22	33.07	75.59	-0.00	0.0676	11.72	515.5	394.57	0.0605	448.1	8.066	15.09	8.85	1.71
	10.23	33.05	75.62	-0.00	0.0677	11.73	516.2	394.96	0.0602	444.2	7.995	14.95	8.72	1.71
	11.22	33.07	75.62	-0.00	0.0677	11.74	516.5	395.21	0.0598	440.7	7.932	14.84	8.60	1.71
	12.21	33.00	75.59	0.00	0.0678	11.74	516.5	395.26	0.0592	434.0	7.812	14.61	8.38	1.71
	13.29	33.04	75.59	0.00	0.0678	11.74	516.4	395.26	0.0591	435.3	7.836	14.66	8.42	1.71
	14.21	33.02	75.62	0.00	0.0678	11.76	517.6	396.03	0.0586	433.7	7.806	14.60	8.37	1.71
	15.21	33.00	75.65	0.00	0.0677	11.72	515.7	394.36	0.0581	419.9	7.557	14.13	7.89	1.71
	16.21	32.97	75.62	0.00	0.0676	11.70	514.7	393.67	0.0573	416.3	7.493	14.01	7.76	1.72
	17.21	33.04	75.57	0.00	0.0677	11.72	515.6	394.76	0.0572	413.6	7.445	13.93	7.67	1.71
	18.20	33.02	75.65	0.00	0.0675	11.69	514.4	393.39	0.0566	409.6	7.373	13.78	7.53	1.71
	19.22	33.04	75.62	0.00	0.0676	11.70	514.6	393.74	0.0560	402.5	7.245	13.55	7.27	1.71
	20.23	33.05	75.62	0.00	0.0675	11.70	514.8	393.86	0.0564	404.4	7.280	13.62	7.34	1.71
	21.23	33.07	75.62	0.00	0.0676	11.70	514.6	393.78	0.0571	412.6	7.426	13.89	7.63	1.71
	22.23	33.08	75.62	-0.00	0.0675	11.70	514.9	394.03	0.0575	417.0	7.505	14.04	7.79	1.72
	23.24	33.06	75.59	-0.00	0.0676	11.71	515.3	394.39	0.0574	416.4	7.496	14.02	7.77	1.71
	24.23	33.11	75.59	-0.00	0.0677	11.72	515.7	394.78	0.0579	418.6	7.534	14.10	7.85	1.71
	25.24	33.11	75.59	-0.00	0.0677	11.73	516.0	395.02	0.0576	418.9	7.540	14.11	7.86	1.71
	26.22	33.10	75.59	-0.00	0.0677	11.71	515.1	394.28	0.0576	416.7	7.501	14.04	7.78	1.71
	27.24	33.12	75.62	0.00	0.0676	11.71	515.2	394.25	0.0577	418.3	7.529	14.08	7.84	1.72
	28.22	33.13	75.62	-0.00	0.0676	11.74	516.5	395.32	0.0577	420.9	7.576	14.17	7.93	1.72
	29.22	33.12	75.65	0.00	0.0678	11.76	517.2	395.70	0.0581	421.4	7.585	14.18	7.95	1.71
	30.30	33.14	75.59	-0.00	0.0681	11.84	520.8	398.74	0.0592	435.4	7.837	14.67	8.43	1.71
	31.21	33.17	75.62	0.00	0.0680	11.80	519.2	397.39	0.0586	427.5	7.695	14.40	8.16	1.71
	32.23	33.17	75.57	-0.00	0.0680	11.77	518.0	396.73	0.0589	429.8	7.737	14.49	8.24	1.71
	33.23	33.19	75.65	-0.00	0.0679	11.77	518.1	396.45	0.0587	431.8	7.773	14.54	8.31	1.72
	34.23	33.19	75.62	-0.00	0.0679	11.77	518.1	396.56	0.0589	433.0	7.795	14.59	8.35	1.72
	35.21	33.17	75.59	0.00	0.0679	11.75	517.1	395.96	0.0588	429.3	7.728	14.46	8.22	1.72
	36.21	33.16	75.62	0.00	0.0679	11.76	517.3	395.94	0.0589	431.5	7.767	14.53	8.30	1.72
	37.28	33.12	75.59	0.00	0.0679	11.77	517.7	396.32	0.0591	434.1	7.814	14.62	8.39	1.72
	38.22	33.10	75.62	-0.00	0.0679	11.76	517.6	396.10	0.0592	433.0	7.794	14.58	8.35	1.72
	39.22	33.15	75.62	0.00	0.0678	11.77	517.9	396.41	0.0592	434.4	7.820	14.63	8.40	1.72
	40.22	33.15	75.62	-0.00	0.0677	11.75	517.0	395.68	0.0590	431.6	7.769	14.53	8.30	1.72
	41.22	33.15	75.62	0.00	0.0679	11.77	517.9	396.37	0.0595	434.9	7.829	14.65	8.41	1.72
	42.20	33.15	75.62	0.00	0.0678	11.75	516.8	395.56	0.0596	437.5	7.875	14.73	8.50	1.72
	43.21	33.17	75.59	0.00	0.0678	11.75	517.2	395.98	0.0595	436.4	7.855	14.70	8.46	1.72
	44.23	33.18	75.59	-0.00	0.0678	11.73	516.1	395.16	0.0594	435.4	7.837	14.67	8.43	1.72
	45.22	33.19	75.62	-0.00	0.0678	11.73	516.3	395.18	0.0595	436.6	7.860	14.71	8.47	1.72
	46.21	33.16	75.62	0.00	0.0678	11.75	517.2	395.87	0.0602	446.5	8.037	15.04	8.80	1.72
	47.22	33.19	75.67	0.00	0.0677	11.72	515.6	394.38	0.0594	437.9	7.881	14.74	8.52	1.72
	48.23	33.19	75.62	-0.00	0.0676	11.72	515.7	394.75	0.0596	436.5	7.856	14.70	8.47	1.72
	49.23	33.18	75.62	-0.00	0.0676	11.72	515.7	394.76	0.0596	437.4	7.873	14.73	8.50	1.72
	50.22	33.19	75.62	0.00	0.0676	11.70	514.9	394.13	0.0596	437.4	7.873	14.73	8.50	1.72
	51.23	33.14	75.62	-0.00	0.0676	11.70	514.7	393.90	0.0596	439.2	7.905	14.79	8.56	1.72
	52.23	33.19	75.62	0.00	0.0676	11.70	514.8	394.05	0.0593	434.8	7.826	14.64	8.41	1.72
	53.23	33.19	75.62	-0.00	0.0677	11.70	515.0	394.22	0.0596	435.5	7.839	14.67	8.44	1.72
	54.23	33.19	75.62	0.00	0.0676	11.71	515.4	394.50	0.0605	446.3	8.034	15.03	8.80	1.72
	55.22	33.21	75.62	-0.00	0.0675	11.70	514.7	394.04	0.0601	442.7	7.968	14.91	8.68	1.72
	56.30	33.21	75.65	0.00	0.0675	11.68	513.8	393.18	0.0595	437.2	7.870	14.72	8.49	1.72
	57.20	33.20	75.62	0.00	0.0674	11.68	513.8	393.34	0.0596	439.4	7.909	14.80	8.57	1.72
	58.23	33.20	75.59	-0.00	0.0675	11.69	514.3	393.80	0.0601	444.3	7.997	14.97	8.73	1.72
	59.22	33.25	75.62	-0.00	0.0676	11.69	514.4	393.83	0.0597	438.3	7.889	14.76	8.53	1.72
	60.23	33.23	75.62	-0.00	0.0674	11.68	513.8	393.36	0.0593	435.8	7.845	14.68	8.45	1.72
	61.29	33.23	75.59	0.00	0.0675	11.69	514.4	393.96	0.0602	443.1	7.975	14.93	8.69	1.72
	62.23	33.25	75.57	-0.00	0.0675	11.69	514.4	394.14	0.0595	439.3	7.908	14.81	8.57	1.72
	63.21	33.23	75.62	-0.00	0.0676	11.69	514.5	393.89	0.0598	439.2	7.906	14.79	8.56	1.72
	64.21	33.25	75.65	0.00	0.0676	11.70	514.9	394.06	0.0601	444.3	7.998	14.96	8.73	1.72
	65.30	33.22	75.57	-0.00	0.0675	11.68	514.0	393.78	0.0601	440.7	7.933	14.86	8.61	1.72
	66.22	33.22	75.62	-0.00	0.0675	11.67	513.6	393.21	0.0594	436.6	7.859	14.71	8.47	1.72
	67.30	33.22	75.62	0.00	0.0674	11.67	513.3	392.93	0.0593	434.7	7.825	14.64	8.41	1.72
	68.22	33.27	75.59	-0.00	0.0674	11.66	513.1	393.03	0.0592	433.2	7.798	14.60	8.36	1.73
	69.22	33.27	75.62	0.00	0.0675	11.66	513.1	392.86	0.0593	435.1	7.832	14.66	8.43	1.72
	70.22	33.29	75.59	-0.00	0.0674	11.67	513.4	393.24	0.0592	434.8	7.827	14.65	8.42	1.72
	71.21	33.29	75.62	0.00	0.0675	11.66	513.0	392.81	0.0595	436.0	7.847	14.69	8.46	1.72
	72.21	33.26	75.62	0.00	0.0674	11.65	512.8	392.63	0.0597	437.4	7.872	14.73	8.50	1.72
	73.21	33.27	75.65	0.00	0.0673	11.64	512.3	392.13	0.0597	439.6	7.912	14.80	8.58	1.73
	74.21	33.29	75.62	-0.00	0.0674	11.65	512.7	392.59	0.0592	435.8	7.845	14.68	8.45	1.73
	75.21	33.27	75.62	0.00	0.0674	11.66	513.2	392.92	0.0590	437.1	7.869	14.73	8.49	1.73
	76.22	33.26	75.62	0.00	0.0674	11.67	513.4	393.07	0.0589	428.5	7.714	14.44	8.20	1.73
	77.24	33.29	75.62	-0.00	0.0675	11.68	513.9	393.48	0.0599	437.6	7.877	14.74	8.51	1.72
	78.22	33.22	75.62	0.00	0.0675	11.67	513.6	393.21	0.0602	443.0	7.973	14.92	8.69	1.73
	79.22	33.29	75.62	0.00	0.0675	11.68	513.8	393.42	0.0601	443.7	7.986	14.95	8.71	1.73
	80.22	33.27	75.62	0.00	0.0674	11.67	513.4	393.12	0.0596	437.7	7.879	14.75	8.51	1.73
	81.21	33.26	75.59	0.00	0.0675	11.68	513.8	393.52	0.0594	436.7	7.861	14.72	8.48	1.73
	82.24	33.32	75.62	-0.00	0.0674	11.66	513.0	392.82	0.0593	433.5	7.802	14.61	8.37	1.73
	83.21	33.34	75.59	0.00	0.0674	11.66	513.0	393.00	0.0593	435.3	7.836	14.67	8.44	1.73
	84.24	33.33	75.59	-0.00	0.0674	11.65	512.8	392.83	0.0594	434.9	7.829	14.66	8.42	1.73
	85.21	33.35	75.65	0.00	0.0673	11.64	512.2	392.18	0.0591	436.8	7.863	14.71	8.49	1.73
	86.22	33.36	75.62	0.00	0.0674	11.65	512.4	392.43	0.0592	434.3	7.818	14.64	8.40	1.73
	87.22	33.38	75.59	-0.00	0.0674	11.66	513.1	393.14	0.0585	429.2	7.726	14.47	8.23	1.73
	88.23	33.36	75.65	-0.00	0.0673	11.64	512.2	392.16	0.0583	424.8	7.646	14.31	8.08	1.73
	89.22	33.39	75.59	-0.00	0.0674	11.67	513.3	393.28	0.0579	422.0	7.596	14.23	7.98	1.73
	90.23	33.35	75.67	-0.00	0.0674	11.65	512.4	392.15	0.0582	422.2	7.599	14.22	7.99	1.73
	91.21	33.38	75.62	0.00	0.0672	11.63	511.7	391.93	0.0584	428.7	7.717	14.45	8.21	1.73
	92.23	33.33	75.59	-0.00	0.0673	11.64	512.0	392.23	0.0582	424.5	7.642	14.31	8.07	1.73
	93.23	33.35	75.62	-0.00	0.0672	11.64	512.2	392.24	0.0582	424.1	7.634	14.29	8.05	1.73
	94.21	33.35	75.59	0.00	0.0674	11.65	512.5	392.66	0.0583	425.0	7.650	14.33	8.08	1.73
	95.21	33.37	75.59	0.00	0.0673	11.64	511.9	392.24	0.0584	425.8	7.664	14.35	8.11	1.73
	96.22	33.38	75.62	0.00	0.0673	11.65	512.6	392.62	0.0590	431.5	7.767	14.54	8.31	1.73
	97.22	33.35	75.62	-0.00	0.0672	11.63	511.9	392.05	0.0584	425.7	7.662	14.34	8.11	1.73
	98.20	33.39	75.59	0.00	0.0674	11.65	512.7	392.84	0.0588	428.9	7.721	14.46	8.22	1.73
	99.22	33.38	75.62	-0.00	0.0675	11.65	512.8	392.74	0.0588	429.5	7.731	14.48	8.24	1.73
	100.20	33.38	75.59	0.00	0.0673	11.65	512.4	392.63	0.0588	428.6	7.716	14.45	8.21	1.73
	101.21	33.38	75.62	0.00	0.0673	11.64	512.2	392.35	0.0588	428.7	7.716	14.45	8.21	1.73
	102.23	33.37	75.59	-0.00	0.0673	11.65	512.8	392.86	0.0590	430.8	7.754	14.52	8.28	1.73
	103.21	33.38	75.62	0.00	0.0672	11.64	512.2	392.29	0.0586	427.9	7.701	14.42	8.18	1.73
	104.22	33.36	75.65	-0.00	0.0671	11.61	511.1	391.27	0.0580	423.8	7.629	14.28	8.04	1.73
	105.21	33.33	75.67	-0.00	0.0671	11.61	510.8	390.91	0.0580	421.1	7.581	14.18	7.95	1.73
	106.22	33.36	75.65	0.00	0.0672	11.64	512.1	392.05	0.0582	423.2	7.617	14.26	8.02	1.73
	107.22	33.38	75.59	0.00	0.0673	11.69	514.2	393.95	0.0582	422.1	7.597	14.23	7.98	1.73
	108.22	33.38	75.62	0.00	0.0673	11.65	512.4	392.46	0.0585	426.5	7.678	14.38	8.14	1.73
	109.23	33.41	75.59	0.00	0.0673	11.62	511.2	391.73	0.0584	425.5	7.659	14.35	8.10	1.73
	110.21	33.40	75.62	0.00	0.0673	11.64	512.2	392.37	0.0587	428.8	7.718	14.45	8.22	1.73
	111.21	33.43	75.59	0.00	0.0673	11.64	512.2	392.50	0.0588	429.1	7.724	14.47	8.23	1.73
	112.23	33.40	75.59	0.00	0.0672	11.62	511.5	391.92	0.0592	430.2	7.743	14.50	8.26	1.73
	113.21	33.40	75.59	0.00	0.0673	11.62	511.5	391.92	0.0599	440.9	7.936	14.86	8.63	1.73
	114.29	33.46	75.59	0.00	0.0672	11.64	512.3	392.62	0.0602	441.2	7.942	14.88	8.64	1.73
	115.21	33.41	75.62	0.00	0.0672	11.64	512.3	392.43	0.0605	448.1	8.066	15.10	8.87	1.73
	116.22	33.43	75.62	-0.00	0.0671	11.61	510.8	391.28	0.0608	450.4	8.107	15.18	8.94	1.73
	117.22	33.39	75.62	0.00	0.0672	11.63	511.8	392.05	0.0608	450.9	8.117	15.20	8.96	1.73
	118.22	33.36	75.62	-0.00	0.0673	11.64	512.0	392.11	0.0606	449.4	8.088	15.14	8.91	1.74
	119.22	33.40	75.62	0.00	0.0672	11.62	511.5	391.79	0.0602	445.2	8.013	15.00	8.77	1.74
	120.21	33.37	75.62	0.00	0.0673	11.63	511.8	391.96	0.0605	447.8	8.061	15.09	8.86	1.74
	121.21	33.44	75.62	0.00	0.0674	11.64	512.2	392.42	0.0603	445.7	8.023	15.02	8.79	1.74
	122.29	33.44	75.62	0.00	0.0673	11.63	511.7	392.02	0.0604	445.5	8.019	15.02	8.78	1.74
	123.21	33.44	75.59	0.00	0.0672	11.61	511.0	391.63	0.0603	444.2	7.996	14.98	8.74	1.74
	124.22	33.45	75.62	-0.00	0.0672	11.62	511.4	391.78	0.0597	440.5	7.928	14.85	8.62	1.74
	125.21	33.50	75.62	0.00	0.0673	11.63	511.6	392.02	0.0597	438.5	7.893	14.78	8.55	1.74
