Jul 22 2015 at 11:53:09
Frequency: 1.00Hz.
CO2
Zero:  Value:0.95  Date:18 Mar 2005	 at 07:22:33	
Span:  Value:1.00  Date:18 Mar 2005	 at 07:25:09	
H2O
Zero:  Value:0.71  Date:18 Mar 2005	 at 07:52:31	
Span:  Value:0.99  Date:18 Mar 2005	 at 11:44:01	
	Relative Time	Temperature	Pressure	Aux Input	CO2 Absorptance	CO2 mmol/m3	CO2 mg/m3	CO2 umol/mol	H2O Absorptance	H2O mmol/m3	H2O g/m3	H2O mmol/mol	H2O(°C)	Cooler Voltage
	0.31	32.20	73.48	0.00	0.0674	11.75	517.0	405.97	0.0629	477.3	8.592	16.49	9.75	1.66
	1.33	32.17	73.51	0.00	0.0670	11.65	512.7	402.35	0.0628	474.3	8.537	16.38	9.65	1.66
	2.32	32.20	73.51	-0.00	0.0674	11.72	515.6	404.70	0.0632	479.4	8.629	16.56	9.81	1.66
	3.32	32.20	73.51	0.00	0.0668	11.63	511.7	401.59	0.0629	476.0	8.567	16.44	9.70	1.66
	4.32	32.17	73.54	0.00	0.0670	11.68	513.7	403.04	0.0639	489.4	8.808	16.89	10.12	1.66
	5.32	32.20	73.56	0.00	0.0669	11.63	511.7	401.33	0.0631	481.7	8.671	16.62	9.88	1.66
	6.32	32.20	73.51	0.00	0.0675	11.77	517.9	406.48	0.0626	475.0	8.551	16.41	9.68	1.66
	7.32	32.17	73.51	0.00	0.0678	11.82	520.2	408.23	0.0626	474.2	8.535	16.37	9.65	1.66
	8.33	32.15	73.53	0.00	0.0676	11.80	519.3	407.39	0.0624	472.6	8.507	16.31	9.60	1.66
	9.33	32.17	73.54	0.00	0.0675	11.78	518.4	406.72	0.0622	470.3	8.466	16.24	9.53	1.66
	10.33	32.20	73.51	0.00	0.0674	11.75	516.9	405.67	0.0619	468.4	8.431	16.18	9.47	1.66
	11.34	32.18	73.48	-0.00	0.0669	11.64	512.1	402.03	0.0617	465.8	8.385	16.09	9.38	1.66
	12.32	32.17	73.48	-0.00	0.0669	11.62	511.1	401.25	0.0620	467.9	8.422	16.16	9.45	1.66
	13.34	32.17	73.51	-0.00	0.0672	11.73	516.1	405.04	0.0625	473.4	8.522	16.35	9.62	1.66
	14.40	32.17	73.51	-0.00	0.0674	11.75	516.8	405.61	0.0632	479.7	8.635	16.57	9.82	1.66
	15.34	32.17	73.51	-0.00	0.0675	11.78	518.2	406.73	0.0637	485.9	8.747	16.78	10.01	1.66
	16.33	32.15	73.51	0.00	0.0675	11.82	519.9	408.00	0.0641	491.7	8.851	16.98	10.19	1.66
	17.33	32.18	73.54	0.00	0.0674	11.74	516.7	405.39	0.0641	488.3	8.789	16.86	10.08	1.66
	18.33	32.22	73.54	0.00	0.0675	11.77	518.0	406.46	0.0643	492.9	8.873	17.02	10.23	1.66
	19.33	32.15	73.51	-0.00	0.0677	11.80	519.2	407.46	0.0645	493.7	8.886	17.05	10.25	1.66
	20.33	32.18	73.51	0.00	0.0675	11.76	517.5	406.13	0.0649	490.4	8.827	16.93	10.15	1.66
	21.39	32.15	73.51	0.00	0.0675	11.79	518.7	407.09	0.0668	534.0	9.611	18.44	11.43	1.67
	22.34	32.17	73.51	0.00	0.0675	11.77	518.0	406.53	0.0663	523.8	9.429	18.09	11.14	1.66
	23.34	32.16	73.48	-0.00	0.0674	11.76	517.2	406.07	0.0678	538.8	9.699	18.61	11.56	1.66
	24.35	32.15	73.54	-0.00	0.0673	11.73	515.9	404.76	0.0700	549.8	9.897	18.98	11.87	1.66
	25.34	32.17	73.51	-0.00	0.0674	11.74	516.7	405.49	0.0692	554.0	9.973	19.13	11.99	1.66
	26.33	32.18	73.51	-0.00	0.0674	11.74	516.7	405.52	0.0667	525.7	9.462	18.15	11.19	1.66
	27.33	32.15	73.48	0.00	0.0673	11.73	516.1	405.13	0.0682	540.5	9.729	18.67	11.61	1.66
	28.31	32.18	73.51	0.00	0.0672	11.71	515.3	404.40	0.0688	547.9	9.863	18.92	11.82	1.66
	29.33	32.10	73.48	0.00	0.0672	11.71	515.1	404.31	0.0681	536.6	9.658	18.53	11.50	1.66
	30.31	32.18	73.51	0.00	0.0671	11.68	513.9	403.30	0.0707	558.7	10.057	19.29	12.11	1.66
	31.34	32.13	73.48	0.00	0.0672	11.69	514.5	403.88	0.0691	546.6	9.838	18.88	11.78	1.66
	32.32	32.13	73.54	0.00	0.0670	11.68	513.8	403.08	0.0692	548.4	9.871	18.93	11.83	1.66
	33.32	32.13	73.51	0.00	0.0671	11.68	514.1	403.39	0.0694	548.4	9.871	18.93	11.83	1.66
	34.40	32.14	73.51	0.00	0.0669	11.65	512.7	402.33	0.0690	549.7	9.894	18.98	11.86	1.66
	35.32	32.13	73.51	0.00	0.0668	11.61	511.0	400.97	0.0682	538.2	9.687	18.58	11.54	1.66
	36.33	32.16	73.51	-0.00	0.0667	11.60	510.4	400.54	0.0704	563.8	10.148	19.47	12.25	1.66
	37.33	32.16	73.51	0.00	0.0665	11.56	508.7	399.24	0.0723	580.4	10.448	20.04	12.69	1.66
	38.34	32.13	73.51	-0.00	0.0665	11.57	509.2	399.59	0.0723	581.6	10.470	20.08	12.72	1.66
	39.36	32.11	73.54	0.00	0.0665	11.56	508.7	398.98	0.0714	574.6	10.344	19.83	12.54	1.66
	40.40	32.11	73.48	0.00	0.0664	11.53	507.4	398.28	0.0725	586.9	10.564	20.27	12.86	1.66
	41.33	32.11	73.48	0.00	0.0661	11.48	505.1	396.43	0.0739	601.2	10.822	20.76	13.23	1.66
	42.32	32.09	73.48	-0.00	0.0660	11.46	504.4	395.93	0.0750	610.4	10.988	21.08	13.46	1.66
	43.32	32.09	73.51	0.00	0.0658	11.37	500.2	392.51	0.0763	638.1	11.486	22.03	14.14	1.66
	44.32	32.14	73.51	0.00	0.0658	11.40	501.7	393.72	0.0754	618.5	11.133	21.36	13.67	1.67
	45.33	32.11	73.51	0.00	0.0658	11.40	501.7	393.70	0.0753	622.0	11.196	21.47	13.75	1.66
	46.33	32.12	73.54	0.00	0.0657	11.40	501.4	393.34	0.0757	621.7	11.191	21.46	13.74	1.66
	47.33	32.16	73.51	0.00	0.0659	11.41	502.1	394.03	0.0750	616.7	11.100	21.29	13.62	1.66
	48.33	32.11	73.51	0.00	0.0658	11.40	501.5	393.47	0.0754	621.8	11.192	21.47	13.75	1.66
	49.33	32.11	73.51	0.00	0.0657	11.38	500.8	392.93	0.0751	619.0	11.142	21.37	13.68	1.66
	50.33	32.18	73.51	-0.00	0.0656	11.37	500.2	392.54	0.0758	623.6	11.225	21.54	13.80	1.66
	51.31	32.12	73.54	0.00	0.0656	11.34	499.1	391.47	0.0758	629.9	11.339	21.74	13.95	1.66
	52.32	32.14	73.51	0.00	0.0655	11.33	498.7	391.37	0.0762	630.1	11.341	21.75	13.95	1.66
	53.32	32.12	73.51	0.00	0.0654	11.32	497.9	390.68	0.0762	632.4	11.384	21.84	14.01	1.66
	54.34	32.12	73.54	0.00	0.0656	11.33	498.5	391.02	0.0760	629.4	11.329	21.72	13.93	1.66
	55.33	32.14	73.51	-0.00	0.0650	11.24	494.5	388.03	0.0779	651.3	11.723	22.49	14.46	1.67
	56.35	32.12	73.51	-0.00	0.0651	11.25	495.0	388.40	0.0779	648.6	11.675	22.39	14.40	1.66
	57.33	32.07	73.48	-0.00	0.0651	11.23	494.2	387.87	0.0775	649.1	11.685	22.42	14.41	1.66
	58.34	32.09	73.51	-0.00	0.0650	11.23	494.0	387.61	0.0774	648.9	11.681	22.40	14.40	1.67
	59.31	32.09	73.48	0.00	0.0652	11.24	494.4	388.07	0.0758	634.4	11.419	21.91	14.05	1.66
	60.31	32.09	73.51	0.00	0.0650	11.22	493.6	387.32	0.0766	634.3	11.417	21.90	14.05	1.66
	61.34	32.09	73.51	-0.00	0.0649	11.20	492.8	386.63	0.0778	643.5	11.583	22.22	14.27	1.67
	62.34	32.14	73.48	-0.00	0.0649	11.21	493.1	387.11	0.0763	638.1	11.486	22.04	14.15	1.66
	63.40	32.13	73.51	0.00	0.0649	11.20	492.7	386.59	0.0774	642.2	11.560	22.17	14.25	1.67
	64.32	32.13	73.51	0.00	0.0646	11.15	490.6	384.99	0.0789	663.3	11.940	22.90	14.75	1.66
	65.40	32.12	73.51	0.00	0.0645	11.10	488.5	383.35	0.0794	674.6	12.142	23.29	15.01	1.67
	66.33	32.14	73.51	-0.00	0.0644	11.07	487.2	382.30	0.0802	680.3	12.246	23.49	15.14	1.66
	67.33	32.15	73.51	-0.00	0.0644	11.07	487.1	382.22	0.0796	678.0	12.204	23.41	15.09	1.67
	68.31	32.14	73.51	0.00	0.0645	11.10	488.5	383.34	0.0788	674.1	12.133	23.27	15.00	1.67
	69.33	32.13	73.54	0.00	0.0644	11.10	488.4	383.12	0.0780	654.0	11.772	22.57	14.53	1.67
	70.33	32.09	73.48	0.00	0.0644	11.08	487.4	382.53	0.0797	675.6	12.160	23.33	15.03	1.67
	71.32	32.12	73.48	0.00	0.0642	11.05	486.4	381.78	0.0803	677.7	12.199	23.41	15.08	1.67
	72.32	32.09	73.51	0.00	0.0641	11.02	485.0	380.57	0.0802	680.7	12.252	23.50	15.14	1.66
	73.32	32.09	73.51	0.00	0.0641	10.99	483.7	379.56	0.0797	683.9	12.311	23.61	15.22	1.67
	74.32	32.09	73.48	0.00	0.0640	10.99	483.6	379.58	0.0811	690.4	12.427	23.84	15.37	1.67
	75.41	32.12	73.51	-0.00	0.0638	10.96	482.3	378.46	0.0813	694.9	12.509	23.99	15.47	1.67
	76.33	32.09	73.48	-0.00	0.0638	10.95	481.9	378.27	0.0815	698.5	12.573	24.12	15.55	1.67
	77.31	32.12	73.51	0.00	0.0638	10.92	480.5	377.06	0.0817	702.0	12.636	24.24	15.63	1.67
	78.31	32.09	73.46	0.00	0.0637	10.93	480.7	377.43	0.0816	700.9	12.616	24.21	15.60	1.67
	79.34	32.09	73.51	-0.00	0.0638	10.93	481.1	377.49	0.0803	683.5	12.302	23.60	15.21	1.67
	80.31	32.09	73.51	0.00	0.0637	10.93	480.8	377.21	0.0796	673.3	12.119	23.24	14.98	1.67
	81.34	32.05	73.48	-0.00	0.0636	10.90	479.7	376.47	0.0804	681.1	12.259	23.52	15.15	1.67
	82.38	32.05	73.51	-0.00	0.0634	10.88	478.8	375.60	0.0827	695.0	12.511	23.99	15.47	1.67
	83.35	32.03	73.54	0.00	0.0634	10.87	478.3	375.12	0.0822	701.4	12.625	24.20	15.61	1.67
	84.33	32.03	73.48	-0.00	0.0635	10.87	478.5	375.49	0.0802	681.3	12.263	23.52	15.16	1.67
	85.33	32.03	73.48	0.00	0.0635	10.89	479.0	375.89	0.0804	682.9	12.292	23.58	15.19	1.67
	86.33	32.03	73.54	0.00	0.0635	10.89	479.1	375.72	0.0801	679.5	12.231	23.45	15.11	1.67
	87.33	32.03	73.51	0.00	0.0633	10.85	477.6	374.66	0.0811	690.4	12.428	23.83	15.36	1.67
	88.39	32.07	73.51	0.00	0.0632	10.83	476.4	373.74	0.0826	708.7	12.757	24.47	15.77	1.67
	89.34	32.06	73.51	-0.00	0.0630	10.80	475.1	372.72	0.0835	722.4	13.004	24.94	16.07	1.67
	90.33	32.05	73.48	0.00	0.0629	10.74	472.8	371.02	0.0843	738.4	13.291	25.50	16.42	1.67
	91.34	32.04	73.49	-0.00	0.0629	10.75	472.9	371.07	0.0838	733.1	13.196	25.31	16.30	1.67
	92.32	32.08	73.48	-0.00	0.0631	10.76	473.7	371.75	0.0835	726.4	13.075	25.08	16.16	1.67
	93.32	32.05	73.48	0.00	0.0630	10.78	474.1	372.08	0.0825	713.1	12.836	24.62	15.87	1.67
	94.32	32.09	73.54	0.00	0.0629	10.75	473.1	371.08	0.0833	718.2	12.927	24.79	15.98	1.67
	95.33	32.09	73.51	-0.00	0.0628	10.75	473.2	371.24	0.0839	722.0	12.997	24.93	16.07	1.67
	96.33	32.12	73.51	0.00	0.0627	10.72	471.8	370.23	0.0846	740.4	13.327	25.56	16.46	1.67
	97.33	32.09	73.54	0.00	0.0626	10.68	470.0	368.64	0.0851	747.6	13.457	25.80	16.61	1.67
	98.34	32.09	73.48	-0.00	0.0625	10.68	470.1	368.97	0.0848	742.4	13.364	25.64	16.50	1.67
	99.36	32.09	73.48	-0.00	0.0625	10.68	470.0	368.90	0.0850	743.9	13.390	25.69	16.53	1.67
	100.40	32.09	73.51	-0.00	0.0625	10.66	468.9	367.93	0.0856	749.8	13.496	25.89	16.66	1.67
	101.31	32.10	73.51	0.00	0.0625	10.67	469.7	368.52	0.0853	747.5	13.455	25.81	16.61	1.67
	102.32	32.09	73.48	0.00	0.0623	10.63	467.9	367.24	0.0855	753.0	13.555	26.01	16.73	1.67
	103.32	32.11	73.51	0.00	0.0622	10.60	466.4	365.93	0.0862	764.5	13.761	26.39	16.96	1.67
	104.33	32.11	73.51	0.00	0.0625	10.66	468.9	367.94	0.0852	748.1	13.466	25.83	16.62	1.67
	105.32	32.09	73.48	0.00	0.0625	10.67	469.3	368.36	0.0843	736.7	13.261	25.44	16.38	1.67
	106.33	32.10	73.54	0.00	0.0623	10.62	467.5	366.69	0.0855	752.5	13.546	25.97	16.72	1.67
	107.33	32.10	73.51	-0.00	0.0624	10.64	468.0	367.18	0.0848	742.4	13.364	25.63	16.50	1.67
	108.33	32.11	73.51	0.00	0.0623	10.63	467.8	367.04	0.0845	737.5	13.275	25.46	16.40	1.67
	109.33	32.09	73.48	-0.00	0.0622	10.62	467.2	366.69	0.0853	737.8	13.280	25.48	16.40	1.67
	110.31	32.09	73.56	0.00	0.0620	10.58	465.4	364.92	0.0857	753.7	13.566	26.00	16.74	1.67
	111.34	32.12	73.51	-0.00	0.0620	10.56	464.6	364.60	0.0851	743.4	13.381	25.67	16.52	1.67
	112.32	32.09	73.51	0.00	0.0618	10.54	463.6	363.78	0.0868	763.7	13.747	26.37	16.95	1.67
	113.32	32.07	73.48	0.00	0.0619	10.53	463.3	363.57	0.0869	770.0	13.859	26.59	17.07	1.67
	114.32	32.12	73.51	0.00	0.0617	10.52	462.8	363.17	0.0874	774.2	13.936	26.73	17.16	1.67
	115.33	32.10	73.51	0.00	0.0616	10.48	461.0	361.68	0.0879	778.0	14.004	26.86	17.24	1.67
	116.33	32.09	73.48	-0.00	0.0616	10.46	460.4	361.37	0.0881	785.3	14.135	27.12	17.39	1.67
	117.33	32.10	73.48	-0.00	0.0615	10.47	460.8	361.66	0.0879	777.1	13.989	26.84	17.22	1.67
	118.34	32.07	73.54	-0.00	0.0614	10.42	458.3	359.42	0.0888	796.3	14.334	27.48	17.61	1.67
	119.33	32.07	73.54	0.00	0.0617	10.50	462.1	362.42	0.0864	756.5	13.618	26.11	16.80	1.67
	120.32	32.07	73.51	0.00	0.0619	10.54	463.6	363.73	0.0850	743.9	13.391	25.68	16.53	1.67
	121.32	32.09	73.54	-0.00	0.0617	10.52	462.8	363.01	0.0854	749.5	13.491	25.87	16.65	1.67
	122.34	32.08	73.51	-0.00	0.0615	10.45	459.8	360.72	0.0885	785.1	14.133	27.11	17.38	1.67
	123.32	32.07	73.48	0.00	0.0616	10.48	461.0	361.83	0.0881	778.0	14.005	26.87	17.24	1.67
	124.32	32.10	73.51	0.00	0.0616	10.47	460.5	361.36	0.0877	786.0	14.148	27.14	17.40	1.67
	125.33	32.07	73.51	0.00	0.0616	10.47	460.8	361.49	0.0875	773.0	13.915	26.69	17.14	1.67
