Jul 22 2015 at 14:37:56
Frequency: 1.00Hz.
CO2
Zero:  Value:0.95  Date:18 Mar 2005	 at 07:22:33	
Span:  Value:1.00  Date:18 Mar 2005	 at 07:25:09	
H2O
Zero:  Value:0.71  Date:18 Mar 2005	 at 07:52:31	
Span:  Value:0.99  Date:18 Mar 2005	 at 11:44:01	
	Relative Time	Temperature	Pressure	Aux Input	CO2 Absorptance	CO2 mmol/m3	CO2 mg/m3	CO2 umol/mol	H2O Absorptance	H2O mmol/m3	H2O g/m3	H2O mmol/mol	H2O(°C)	Cooler Voltage
	0.06	33.55	75.65	0.00	0.0673	11.62	511.5	391.82	0.0615	457.7	8.239	15.43	9.19	1.75
	1.06	33.55	75.62	0.00	0.0671	11.61	510.8	391.44	0.0619	463.2	8.337	15.62	9.36	1.75
	2.06	33.50	75.59	0.00	0.0671	11.60	510.4	391.25	0.0617	459.5	8.272	15.50	9.25	1.75
	3.06	33.50	75.65	0.00	0.0673	11.63	511.8	392.03	0.0613	457.4	8.233	15.42	9.18	1.75
	4.07	33.52	75.62	0.00	0.0672	11.65	512.7	392.90	0.0615	456.6	8.219	15.39	9.15	1.75
	5.07	33.54	75.62	0.00	0.0673	11.61	510.8	391.44	0.0619	460.8	8.294	15.54	9.29	1.75
	6.08	33.55	75.59	0.00	0.0671	11.60	510.3	391.24	0.0616	459.8	8.277	15.51	9.26	1.75
	7.08	33.52	75.62	-0.00	0.0672	11.60	510.4	391.12	0.0617	459.2	8.266	15.48	9.24	1.75
	8.10	33.54	75.62	-0.00	0.0673	11.63	511.9	392.27	0.0605	445.5	8.019	15.02	8.79	1.75
	9.06	33.54	75.65	0.00	0.0674	11.65	512.5	392.63	0.0600	445.6	8.020	15.02	8.79	1.75
	10.08	33.50	75.62	0.00	0.0675	11.66	513.2	393.22	0.0609	448.2	8.068	15.11	8.88	1.75
	11.14	33.50	75.62	0.00	0.0674	11.65	512.5	392.73	0.0607	449.0	8.082	15.14	8.90	1.75
	12.07	33.52	75.59	0.00	0.0673	11.64	512.3	392.73	0.0612	452.8	8.150	15.27	9.03	1.75
	13.07	33.52	75.59	0.00	0.0673	11.66	513.0	393.25	0.0614	456.9	8.225	15.41	9.16	1.75
	14.07	33.55	75.65	0.00	0.0674	11.66	513.1	393.07	0.0618	461.3	8.304	15.55	9.30	1.75
	15.07	33.54	75.59	0.00	0.0674	11.66	512.8	393.13	0.0620	462.9	8.332	15.61	9.36	1.75
	16.08	33.55	75.62	0.00	0.0674	11.67	513.3	393.36	0.0620	462.8	8.331	15.61	9.35	1.75
	17.07	33.56	75.62	0.00	0.0674	11.66	513.2	393.31	0.0620	462.8	8.331	15.61	9.35	1.75
	18.08	33.57	75.59	-0.00	0.0674	11.67	513.3	393.52	0.0619	462.4	8.324	15.60	9.34	1.75
	19.06	33.57	75.62	0.00	0.0675	11.66	513.2	393.34	0.0617	460.2	8.284	15.52	9.27	1.75
	20.06	33.58	75.59	0.00	0.0674	11.66	513.2	393.48	0.0614	457.8	8.241	15.44	9.19	1.75
	21.08	33.57	75.62	0.00	0.0674	11.66	512.9	393.09	0.0611	454.0	8.172	15.31	9.07	1.75
	22.07	33.61	75.62	0.00	0.0674	11.64	512.1	392.54	0.0610	451.5	8.127	15.23	8.99	1.75
	23.06	33.59	75.57	0.00	0.0673	11.65	512.5	393.08	0.0597	447.2	8.049	15.09	8.85	1.75
	24.07	33.60	75.62	-0.00	0.0674	11.66	512.9	393.14	0.0592	429.0	7.722	14.47	8.23	1.75
	25.05	33.58	75.62	0.00	0.0674	11.68	513.7	393.74	0.0602	443.7	7.986	14.96	8.73	1.75
	26.07	33.60	75.62	0.00	0.0675	11.68	514.0	393.98	0.0598	444.3	7.997	14.98	8.75	1.76
	27.07	33.62	75.59	0.00	0.0675	11.68	513.9	394.05	0.0589	428.7	7.716	14.46	8.22	1.75
	28.06	33.63	75.62	0.00	0.0674	11.67	513.7	393.78	0.0594	436.9	7.865	14.74	8.50	1.75
	29.08	33.57	75.62	-0.00	0.0674	11.66	512.8	393.04	0.0590	432.5	7.786	14.59	8.35	1.75
	30.06	33.59	75.59	0.00	0.0674	11.66	513.0	393.30	0.0586	429.2	7.725	14.48	8.24	1.75
	31.07	33.60	75.62	-0.00	0.0674	11.66	513.1	393.25	0.0588	428.8	7.719	14.46	8.23	1.75
	32.07	33.60	75.62	0.00	0.0672	11.64	512.1	392.55	0.0585	428.1	7.705	14.44	8.20	1.76
	33.09	33.63	75.62	0.00	0.0673	11.64	512.2	392.61	0.0587	428.0	7.704	14.44	8.20	1.75
	34.09	33.60	75.62	-0.00	0.0674	11.65	512.7	392.94	0.0587	428.3	7.710	14.45	8.21	1.75
	35.09	33.59	75.65	-0.00	0.0674	11.67	513.7	393.57	0.0592	432.8	7.790	14.59	8.36	1.75
	36.07	33.64	75.59	0.00	0.0677	11.71	515.1	394.99	0.0595	436.5	7.857	14.73	8.49	1.75
	37.08	33.64	75.62	0.00	0.0676	11.72	515.7	395.37	0.0595	437.6	7.877	14.76	8.53	1.76
	38.06	33.67	75.62	0.00	0.0677	11.72	515.6	395.29	0.0594	436.9	7.864	14.74	8.51	1.76
	39.08	33.66	75.59	0.00	0.0677	11.72	515.6	395.44	0.0594	435.4	7.838	14.69	8.46	1.75
	40.08	33.66	75.62	-0.00	0.0676	11.71	515.1	394.91	0.0590	431.8	7.773	14.57	8.33	1.75
	41.09	33.66	75.62	-0.00	0.0677	11.71	515.2	395.00	0.0590	432.7	7.789	14.60	8.36	1.76
	42.15	33.67	75.62	0.00	0.0675	11.69	514.2	394.26	0.0586	428.9	7.719	14.47	8.23	1.76
	43.07	33.68	75.62	0.00	0.0674	11.68	513.9	394.00	0.0584	425.3	7.655	14.35	8.11	1.76
	44.07	33.69	75.62	-0.00	0.0675	11.69	514.3	394.31	0.0586	428.5	7.713	14.46	8.22	1.76
	45.08	33.69	75.62	-0.00	0.0675	11.70	514.6	394.58	0.0586	428.5	7.712	14.45	8.22	1.76
	46.07	33.66	75.62	0.00	0.0676	11.70	514.7	394.62	0.0588	430.1	7.742	14.51	8.27	1.76
	47.14	33.66	75.59	0.00	0.0675	11.69	514.2	394.31	0.0590	431.6	7.769	14.56	8.33	1.76
	48.08	33.69	75.62	-0.00	0.0674	11.68	513.8	393.93	0.0591	432.8	7.790	14.60	8.37	1.76
	49.08	33.66	75.62	-0.00	0.0675	11.68	513.9	393.96	0.0592	433.0	7.794	14.61	8.37	1.76
	50.06	33.68	75.59	0.00	0.0675	11.68	513.8	394.08	0.0592	434.5	7.821	14.66	8.42	1.76
	51.14	33.64	75.62	0.00	0.0675	11.68	514.1	394.10	0.0593	434.4	7.819	14.65	8.42	1.76
	52.06	33.69	75.62	0.00	0.0675	11.68	514.0	394.10	0.0591	433.9	7.811	14.64	8.41	1.76
	53.07	33.71	75.59	-0.00	0.0674	11.67	513.5	393.84	0.0591	432.9	7.793	14.61	8.37	1.76
	54.05	33.71	75.62	0.00	0.0674	11.67	513.5	393.71	0.0590	431.6	7.768	14.56	8.33	1.76
	55.07	33.68	75.62	0.00	0.0674	11.66	512.9	393.26	0.0588	430.3	7.746	14.52	8.28	1.76
	56.07	33.75	75.62	0.00	0.0674	11.67	513.4	393.70	0.0585	427.8	7.700	14.43	8.20	1.76
	57.08	33.73	75.62	0.00	0.0673	11.65	512.6	393.07	0.0581	423.7	7.627	14.30	8.06	1.76
	58.06	33.73	75.62	0.00	0.0674	11.64	512.2	392.77	0.0580	421.4	7.585	14.22	7.98	1.76
	59.09	33.71	75.59	-0.00	0.0673	11.65	512.6	393.18	0.0583	423.7	7.627	14.30	8.06	1.76
	60.08	33.76	75.62	-0.00	0.0674	11.66	512.9	393.35	0.0585	426.6	7.678	14.39	8.16	1.76
	61.09	33.76	75.59	-0.00	0.0674	11.65	512.6	393.26	0.0586	427.1	7.689	14.42	8.18	1.76
	62.07	33.76	75.62	0.00	0.0673	11.65	512.7	393.21	0.0584	426.9	7.684	14.40	8.17	1.76
	63.09	33.77	75.59	-0.00	0.0674	11.66	513.1	393.65	0.0587	428.9	7.720	14.48	8.24	1.76
	64.15	33.75	75.62	-0.00	0.0675	11.66	513.2	393.53	0.0588	430.9	7.755	14.54	8.30	1.76
	65.07	33.77	75.59	0.00	0.0674	11.67	513.3	393.82	0.0589	430.1	7.742	14.52	8.28	1.76
	66.08	33.77	75.62	-0.00	0.0675	11.67	513.4	393.75	0.0587	430.1	7.741	14.51	8.28	1.76
	67.14	33.79	75.62	0.00	0.0673	11.65	512.6	393.14	0.0584	425.7	7.662	14.37	8.13	1.76
	68.06	33.81	75.62	0.00	0.0674	11.65	512.7	393.25	0.0584	426.6	7.679	14.40	8.16	1.76
	69.08	33.77	75.59	0.00	0.0675	11.66	512.9	393.50	0.0586	427.4	7.694	14.43	8.19	1.76
	70.08	33.77	75.62	0.00	0.0674	11.67	513.5	393.78	0.0581	423.9	7.630	14.30	8.07	1.76
	71.07	33.77	75.62	0.00	0.0673	11.66	513.0	393.40	0.0578	420.1	7.561	14.18	7.93	1.76
	72.07	33.75	75.59	-0.00	0.0675	11.67	513.4	393.87	0.0576	418.3	7.530	14.12	7.87	1.76
	73.15	33.75	75.62	-0.00	0.0673	11.64	512.3	392.85	0.0571	414.1	7.454	13.97	7.72	1.76
	74.07	33.80	75.62	-0.00	0.0672	11.62	511.4	392.22	0.0571	412.4	7.422	13.92	7.66	1.76
	75.08	33.79	75.67	-0.00	0.0672	11.62	511.5	392.02	0.0574	415.3	7.475	14.00	7.77	1.76
	76.05	33.77	75.62	0.00	0.0673	11.63	511.9	392.59	0.0574	416.0	7.488	14.04	7.79	1.76
	77.08	33.80	75.62	0.00	0.0674	11.64	512.3	392.94	0.0575	416.6	7.500	14.06	7.81	1.76
	78.06	33.81	75.62	-0.00	0.0672	11.63	511.9	392.63	0.0575	416.9	7.505	14.07	7.82	1.76
	79.06	33.77	75.62	0.00	0.0673	11.63	511.8	392.48	0.0574	416.8	7.503	14.07	7.82	1.76
	80.06	33.74	75.59	0.00	0.0673	11.63	511.9	392.66	0.0575	416.4	7.494	14.05	7.80	1.76
	81.06	33.77	75.59	0.00	0.0672	11.64	512.2	392.93	0.0574	416.2	7.492	14.05	7.80	1.76
	82.15	33.77	75.62	0.00	0.0673	11.65	512.7	393.19	0.0576	417.1	7.507	14.07	7.83	1.76
	83.07	33.79	75.59	0.00	0.0674	11.66	513.0	393.57	0.0577	418.4	7.532	14.13	7.88	1.76
	84.08	33.81	75.59	-0.00	0.0672	11.63	511.8	392.69	0.0574	416.4	7.495	14.06	7.81	1.76
	85.07	33.80	75.62	0.00	0.0672	11.62	511.5	392.31	0.0571	413.5	7.444	13.96	7.70	1.76
	86.07	33.77	75.59	0.00	0.0673	11.63	511.8	392.62	0.0570	412.7	7.428	13.93	7.67	1.76
	87.08	33.77	75.59	0.00	0.0672	11.63	511.7	392.55	0.0570	411.8	7.413	13.90	7.64	1.76
	88.09	33.83	75.65	-0.00	0.0673	11.64	512.1	392.68	0.0569	410.8	7.395	13.86	7.61	1.76
	89.08	33.76	75.62	-0.00	0.0672	11.63	511.6	392.35	0.0567	409.1	7.364	13.80	7.54	1.77
	90.08	33.77	75.59	0.00	0.0672	11.62	511.1	392.12	0.0567	408.8	7.358	13.80	7.53	1.77
	91.07	33.80	75.62	0.00	0.0673	11.63	511.9	392.59	0.0570	411.2	7.402	13.88	7.62	1.76
	92.09	33.82	75.59	0.00	0.0674	11.66	513.1	393.70	0.0571	413.3	7.440	13.96	7.70	1.76
	93.07	33.80	75.62	0.00	0.0673	11.64	512.0	392.72	0.0570	411.6	7.408	13.89	7.63	1.76
	94.07	33.82	75.62	0.00	0.0673	11.62	511.3	392.15	0.0569	410.5	7.390	13.86	7.60	1.76
	95.07	33.82	75.62	0.00	0.0671	11.61	510.8	391.82	0.0566	408.5	7.353	13.79	7.52	1.77
	96.08	33.82	75.57	0.00	0.0671	11.60	510.4	391.77	0.0565	406.4	7.316	13.73	7.45	1.77
	97.06	33.79	75.62	0.00	0.0672	11.60	510.4	391.44	0.0566	407.4	7.332	13.75	7.48	1.76
	98.16	33.81	75.62	-0.00	0.0672	11.62	511.2	392.07	0.0567	408.7	7.357	13.79	7.53	1.76
	99.08	33.83	75.59	0.00	0.0673	11.63	511.8	392.74	0.0569	409.9	7.379	13.84	7.58	1.77
	100.15	33.84	75.65	0.00	0.0672	11.62	511.4	392.17	0.0568	410.3	7.385	13.84	7.59	1.77
	101.07	33.83	75.59	-0.00	0.0672	11.62	511.2	392.24	0.0572	413.5	7.444	13.96	7.70	1.77
	102.07	33.84	75.62	0.00	0.0672	11.62	511.5	392.35	0.0571	414.4	7.459	13.99	7.74	1.77
	103.07	33.84	75.62	0.00	0.0673	11.62	511.2	392.12	0.0572	413.6	7.445	13.96	7.71	1.77
	104.07	33.84	75.62	0.00	0.0671	11.61	510.9	391.87	0.0570	412.0	7.416	13.91	7.65	1.77
	105.07	33.86	75.62	0.00	0.0671	11.60	510.5	391.61	0.0567	409.6	7.373	13.83	7.57	1.77
	106.06	33.86	75.62	0.00	0.0671	11.59	510.0	391.22	0.0567	407.9	7.343	13.77	7.51	1.77
	107.06	33.83	75.59	0.00	0.0672	11.60	510.5	391.71	0.0567	408.6	7.355	13.80	7.53	1.77
	108.06	33.83	75.62	0.00	0.0673	11.62	511.1	392.05	0.0569	410.9	7.396	13.87	7.61	1.77
	109.06	33.83	75.62	0.00	0.0672	11.62	511.3	392.18	0.0572	412.4	7.423	13.92	7.67	1.77
	110.07	33.82	75.62	-0.00	0.0673	11.63	511.9	392.67	0.0572	413.9	7.449	13.97	7.72	1.77
	111.06	33.90	75.65	0.00	0.0673	11.64	512.2	392.80	0.0572	413.6	7.445	13.96	7.71	1.77
	112.07	33.85	75.59	-0.00	0.0673	11.64	512.1	392.95	0.0571	413.1	7.436	13.95	7.69	1.77
	113.07	33.83	75.65	-0.00	0.0672	11.64	512.0	392.58	0.0570	412.7	7.428	13.92	7.67	1.77
	114.07	33.85	75.65	0.00	0.0673	11.63	511.9	392.57	0.0571	413.4	7.442	13.95	7.70	1.77
	115.05	33.85	75.62	0.00	0.0672	11.62	511.2	392.15	0.0570	412.3	7.422	13.92	7.66	1.77
	116.06	33.90	75.59	0.00	0.0671	11.60	510.5	391.83	0.0567	409.6	7.373	13.83	7.57	1.77
	117.08	33.87	75.65	-0.00	0.0671	11.59	509.8	390.95	0.0565	407.0	7.326	13.73	7.47	1.77
	118.09	33.87	75.65	-0.00	0.0671	11.58	509.4	390.64	0.0565	405.8	7.304	13.69	7.43	1.77
	119.09	33.92	75.59	0.00	0.0670	11.58	509.5	391.03	0.0564	406.1	7.311	13.72	7.45	1.77
	120.07	33.87	75.62	0.00	0.0670	11.59	509.7	391.06	0.0564	407.1	7.328	13.74	7.48	1.77
	121.09	33.92	75.62	0.00	0.0671	11.59	510.1	391.36	0.0566	407.5	7.335	13.76	7.49	1.77
