Jul 22 2015 at 9:29:32
Frequency: 1.00Hz.
CO2
Zero:  Value:0.95  Date:18 Mar 2005	 at 07:22:33	
Span:  Value:1.00  Date:18 Mar 2005	 at 07:25:09	
H2O
Zero:  Value:0.71  Date:18 Mar 2005	 at 07:52:31	
Span:  Value:0.99  Date:18 Mar 2005	 at 11:44:01	
	Relative Time	Temperature	Pressure	Aux Input	CO2 Absorptance	CO2 mmol/m3	CO2 mg/m3	CO2 umol/mol	H2O Absorptance	H2O mmol/m3	H2O g/m3	H2O mmol/mol	H2O(°C)	Cooler Voltage
	0.72	21.25	73.48	0.00	0.0641	11.01	484.6	366.86	0.0946	874.7	15.745	29.14	18.53	1.54
	1.70	21.23	73.48	0.00	0.0638	10.98	483.1	365.65	0.0950	879.2	15.826	29.28	18.61	1.54
	2.71	21.25	73.48	0.00	0.0636	10.91	479.9	363.30	0.0952	886.9	15.963	29.54	18.75	1.54
	3.70	21.25	73.48	0.00	0.0642	11.03	485.3	367.35	0.0937	865.9	15.585	28.84	18.36	1.54
	4.73	21.25	73.46	0.00	0.0640	10.98	483.2	365.91	0.0937	866.2	15.591	28.86	18.37	1.54
	5.72	21.28	73.48	-0.00	0.0645	11.10	488.5	369.84	0.0920	847.8	15.261	28.24	18.03	1.54
	6.72	21.28	73.46	0.00	0.0646	11.14	490.1	371.19	0.0926	846.9	15.244	28.22	18.01	1.54
	7.72	21.26	73.46	-0.00	0.0649	11.19	492.5	372.94	0.0922	843.9	15.191	28.12	17.96	1.54
	8.72	21.30	73.46	0.00	0.0649	11.20	492.6	373.09	0.0923	843.6	15.185	28.11	17.95	1.54
	9.72	21.31	73.46	-0.00	0.0649	11.19	492.5	373.02	0.0924	844.3	15.197	28.14	17.97	1.54
	10.72	21.30	73.46	0.00	0.0652	11.24	494.7	374.67	0.0920	840.7	15.132	28.02	17.90	1.54
	11.72	21.31	73.46	0.00	0.0654	11.30	497.3	376.68	0.0909	824.0	14.832	27.46	17.58	1.54
	12.71	21.31	73.51	0.00	0.0653	11.27	495.9	375.39	0.0914	830.2	14.944	27.65	17.70	1.55
	13.81	21.30	73.48	-0.00	0.0649	11.21	493.2	373.45	0.0921	837.6	15.077	27.90	17.84	1.54
	14.73	21.30	73.48	-0.00	0.0650	11.22	493.8	373.86	0.0918	836.7	15.061	27.87	17.82	1.54
	15.74	21.31	73.51	-0.00	0.0652	11.23	494.3	374.12	0.0913	832.7	14.989	27.73	17.75	1.55
	16.72	21.28	73.46	-0.00	0.0654	11.28	496.5	376.03	0.0910	828.5	14.913	27.61	17.67	1.55
	17.72	21.30	73.48	0.00	0.0654	11.28	496.5	375.88	0.0909	830.0	14.940	27.65	17.69	1.55
	18.72	21.30	73.48	-0.00	0.0656	11.35	499.3	378.02	0.0903	814.4	14.659	27.13	17.39	1.54
	19.72	21.30	73.46	0.00	0.0657	11.37	500.3	378.95	0.0900	810.5	14.589	27.01	17.32	1.54
	20.72	21.30	73.48	0.00	0.0657	11.36	500.0	378.55	0.0897	809.9	14.579	26.98	17.31	1.54
	21.73	21.28	73.51	-0.00	0.0657	11.37	500.5	378.78	0.0902	811.5	14.608	27.02	17.34	1.55
	22.71	21.30	73.46	0.00	0.0657	11.38	500.7	379.22	0.0901	814.5	14.661	27.14	17.40	1.55
	23.73	21.30	73.48	-0.00	0.0658	11.39	501.3	379.52	0.0899	810.1	14.582	26.99	17.31	1.54
	24.73	21.32	73.46	-0.00	0.0659	11.40	501.8	380.06	0.0895	804.7	14.485	26.82	17.21	1.54
	25.71	21.28	73.48	0.00	0.0658	11.39	501.1	379.33	0.0897	806.8	14.523	26.88	17.25	1.55
	26.71	21.31	73.46	0.00	0.0659	11.42	502.3	380.47	0.0897	806.4	14.516	26.88	17.24	1.55
	27.72	21.32	73.51	0.00	0.0659	11.42	502.7	380.49	0.0894	803.2	14.458	26.75	17.18	1.55
	28.72	21.30	73.48	-0.00	0.0661	11.44	503.4	381.10	0.0889	799.8	14.397	26.65	17.11	1.55
	29.73	21.30	73.46	-0.00	0.0661	11.46	504.1	381.79	0.0889	794.1	14.294	26.46	17.00	1.55
	30.72	21.30	73.48	-0.00	0.0660	11.42	502.6	380.56	0.0895	806.6	14.518	26.87	17.24	1.55
	31.73	21.30	73.48	-0.00	0.0660	11.44	503.4	381.15	0.0897	807.5	14.536	26.90	17.26	1.55
	32.71	21.31	73.48	-0.00	0.0660	11.45	503.8	381.49	0.0896	805.6	14.502	26.84	17.22	1.55
	33.74	21.31	73.51	-0.00	0.0661	11.45	504.0	381.50	0.0896	805.5	14.500	26.83	17.22	1.55
	34.73	21.31	73.46	-0.00	0.0660	11.44	503.4	381.27	0.0894	805.0	14.489	26.83	17.21	1.55
	35.72	21.31	73.48	0.00	0.0661	11.46	504.1	381.70	0.0896	806.9	14.524	26.88	17.25	1.55
	36.72	21.31	73.46	0.00	0.0661	11.47	504.7	382.28	0.0895	805.1	14.491	26.83	17.21	1.55
	37.74	21.31	73.46	-0.00	0.0662	11.46	504.4	382.03	0.0895	804.3	14.478	26.81	17.20	1.55
	38.72	21.33	73.46	0.00	0.0662	11.47	504.7	382.29	0.0896	805.0	14.491	26.83	17.21	1.55
	39.73	21.33	73.46	-0.00	0.0661	11.47	504.6	382.25	0.0895	806.4	14.516	26.88	17.24	1.55
	40.72	21.35	73.48	0.00	0.0661	11.47	504.7	382.22	0.0888	798.0	14.364	26.59	17.08	1.55
	41.73	21.33	73.46	-0.00	0.0661	11.47	504.5	382.16	0.0889	794.1	14.294	26.47	17.00	1.55
	42.71	21.33	73.48	0.00	0.0662	11.48	505.3	382.63	0.0894	804.0	14.472	26.79	17.19	1.55
	43.73	21.33	73.48	-0.00	0.0662	11.49	505.5	382.79	0.0894	802.0	14.437	26.72	17.15	1.55
	44.73	21.33	73.48	-0.00	0.0662	11.49	505.5	382.74	0.0896	806.3	14.514	26.86	17.24	1.55
	45.72	21.35	73.46	0.00	0.0662	11.49	505.7	383.09	0.0895	805.8	14.504	26.86	17.23	1.55
	46.72	21.33	73.46	-0.00	0.0662	11.48	505.2	382.66	0.0894	804.3	14.477	26.80	17.20	1.55
	47.72	21.35	73.48	0.00	0.0662	11.50	505.9	383.08	0.0895	805.0	14.491	26.82	17.21	1.55
	48.70	21.35	73.51	0.00	0.0663	11.49	505.5	382.69	0.0895	805.5	14.499	26.83	17.22	1.55
	49.73	21.37	73.46	-0.00	0.0663	11.50	505.9	383.29	0.0894	803.6	14.464	26.79	17.19	1.55
	50.70	21.35	73.46	0.00	0.0664	11.51	506.7	383.81	0.0892	800.1	14.402	26.67	17.12	1.55
	51.71	21.35	73.48	0.00	0.0663	11.50	506.1	383.28	0.0892	801.7	14.430	26.71	17.15	1.55
	52.71	21.35	73.48	-0.00	0.0663	11.50	506.2	383.33	0.0894	804.7	14.484	26.81	17.21	1.55
	53.73	21.37	73.48	-0.00	0.0662	11.49	505.5	382.84	0.0894	804.4	14.480	26.80	17.20	1.55
	54.71	21.36	73.48	-0.00	0.0663	11.50	506.2	383.33	0.0894	803.4	14.461	26.77	17.18	1.55
	55.71	21.37	73.48	0.00	0.0662	11.49	505.6	382.92	0.0897	807.0	14.527	26.89	17.25	1.55
	56.71	21.37	73.46	0.00	0.0663	11.50	506.2	383.48	0.0896	806.5	14.517	26.88	17.24	1.55
	57.72	21.37	73.51	-0.00	0.0663	11.49	505.6	382.76	0.0895	805.9	14.506	26.85	17.23	1.55
	58.72	21.36	73.48	-0.00	0.0663	11.49	505.7	382.96	0.0895	804.5	14.481	26.81	17.20	1.55
	59.70	21.35	73.46	0.00	0.0663	11.49	505.7	383.09	0.0896	807.0	14.526	26.90	17.25	1.55
	60.73	21.40	73.48	-0.00	0.0663	11.49	505.7	383.04	0.0896	807.1	14.527	26.90	17.26	1.55
	61.79	21.38	73.46	0.00	0.0663	11.50	506.1	383.41	0.0895	805.5	14.498	26.85	17.22	1.55
	62.71	21.38	73.48	0.00	0.0663	11.50	506.1	383.31	0.0895	805.3	14.496	26.84	17.22	1.55
	63.80	21.38	73.48	-0.00	0.0663	11.50	506.1	383.32	0.0897	806.7	14.520	26.88	17.25	1.55
	64.71	21.38	73.48	0.00	0.0663	11.50	505.8	383.09	0.0896	806.1	14.509	26.86	17.24	1.55
	65.74	21.38	73.48	-0.00	0.0663	11.50	506.1	383.31	0.0896	806.5	14.516	26.87	17.24	1.55
	66.72	21.38	73.46	-0.00	0.0662	11.49	505.7	383.15	0.0898	806.0	14.507	26.87	17.23	1.55
	67.74	21.38	73.48	-0.00	0.0663	11.50	506.0	383.23	0.0899	808.5	14.554	26.94	17.28	1.55
	68.72	21.38	73.48	-0.00	0.0663	11.49	505.8	383.03	0.0899	811.2	14.601	27.03	17.34	1.55
	69.72	21.40	73.48	0.00	0.0663	11.50	505.8	383.09	0.0899	810.9	14.596	27.02	17.33	1.55
	70.72	21.40	73.48	0.00	0.0663	11.50	506.0	383.27	0.0901	812.8	14.630	27.09	17.37	1.55
	71.73	21.40	73.46	-0.00	0.0662	11.48	505.3	382.81	0.0901	812.5	14.625	27.09	17.36	1.55
	72.71	21.40	73.46	0.00	0.0661	11.45	503.9	381.75	0.0901	813.8	14.649	27.13	17.39	1.55
	73.71	21.40	73.46	0.00	0.0662	11.48	505.2	382.78	0.0899	810.0	14.580	27.00	17.31	1.55
	74.71	21.40	73.48	0.00	0.0662	11.49	505.4	382.80	0.0899	810.5	14.589	27.01	17.32	1.55
	75.72	21.40	73.46	0.00	0.0662	11.47	504.9	382.51	0.0900	812.1	14.617	27.07	17.35	1.55
	76.72	21.42	73.46	-0.00	0.0662	11.48	505.1	382.71	0.0903	815.9	14.685	27.20	17.43	1.55
	77.70	21.42	73.48	0.00	0.0662	11.49	505.6	382.94	0.0901	814.0	14.652	27.13	17.39	1.55
	78.70	21.42	73.46	0.00	0.0662	11.49	505.4	382.96	0.0901	813.2	14.638	27.11	17.38	1.55
	79.78	21.41	73.48	0.00	0.0662	11.49	505.3	382.76	0.0902	814.4	14.659	27.14	17.40	1.55
	80.72	21.42	73.48	-0.00	0.0662	11.47	504.8	382.36	0.0904	818.1	14.726	27.26	17.47	1.55
	81.71	21.42	73.48	0.00	0.0662	11.47	504.7	382.25	0.0902	815.1	14.672	27.17	17.41	1.55
	82.70	21.42	73.48	0.00	0.0662	11.48	505.0	382.54	0.0902	814.8	14.667	27.16	17.41	1.55
	83.71	21.43	73.46	0.00	0.0662	11.47	504.9	382.56	0.0903	815.0	14.670	27.17	17.41	1.55
	84.72	21.43	73.46	-0.00	0.0660	11.44	503.4	381.43	0.0905	819.3	14.747	27.31	17.50	1.55
	85.72	21.43	73.48	0.00	0.0660	11.42	502.7	380.75	0.0906	819.3	14.748	27.31	17.50	1.55
	86.71	21.43	73.48	0.00	0.0660	11.43	503.0	381.04	0.0908	822.4	14.803	27.41	17.56	1.55
	87.73	21.45	73.46	-0.00	0.0661	11.44	503.3	381.41	0.0907	823.7	14.826	27.46	17.58	1.55
	88.73	21.43	73.48	0.00	0.0660	11.43	502.8	380.83	0.0909	824.7	14.844	27.49	17.60	1.55
	89.72	21.45	73.48	0.00	0.0660	11.44	503.4	381.32	0.0907	821.8	14.792	27.39	17.54	1.55
	90.73	21.45	73.46	0.00	0.0660	11.44	503.2	381.32	0.0905	819.4	14.750	27.32	17.50	1.55
	91.73	21.49	73.48	-0.00	0.0660	11.46	504.2	381.98	0.0905	818.5	14.732	27.28	17.48	1.55
	92.74	21.45	73.46	-0.00	0.0660	11.45	503.6	381.62	0.0907	820.9	14.777	27.37	17.53	1.55
	93.71	21.45	73.48	0.00	0.0660	11.43	503.1	381.13	0.0907	822.9	14.812	27.43	17.57	1.55
	94.74	21.47	73.48	-0.00	0.0660	11.43	503.0	381.04	0.0907	821.7	14.790	27.39	17.54	1.55
	95.71	21.45	73.46	0.00	0.0660	11.44	503.5	381.52	0.0910	824.1	14.835	27.48	17.59	1.55
	96.72	21.45	73.48	0.00	0.0660	11.44	503.5	381.37	0.0910	823.6	14.826	27.45	17.58	1.55
	97.72	21.47	73.46	-0.00	0.0660	11.43	502.9	381.13	0.0912	827.8	14.901	27.60	17.66	1.56
	98.72	21.47	73.48	-0.00	0.0661	11.45	503.7	381.62	0.0908	824.7	14.845	27.49	17.60	1.56
	99.72	21.45	73.43	-0.00	0.0661	11.45	503.7	381.80	0.0908	822.7	14.809	27.44	17.56	1.55
	100.70	21.47	73.46	0.00	0.0661	11.46	504.4	382.23	0.0908	823.6	14.826	27.46	17.58	1.55
	101.71	21.47	73.46	0.00	0.0661	11.46	504.3	382.21	0.0909	823.5	14.823	27.46	17.58	1.55
	102.70	21.48	73.51	0.00	0.0660	11.44	503.4	381.23	0.0911	826.9	14.884	27.55	17.64	1.55
	103.72	21.47	73.48	-0.00	0.0660	11.42	502.6	380.77	0.0914	830.9	14.956	27.69	17.72	1.56
	104.72	21.48	73.48	0.00	0.0658	11.40	501.4	379.87	0.0914	831.5	14.967	27.72	17.73	1.56
	105.72	21.48	73.48	-0.00	0.0661	11.44	503.6	381.50	0.0911	826.2	14.871	27.54	17.63	1.55
	106.72	21.50	73.46	0.00	0.0661	11.46	504.2	382.12	0.0910	825.9	14.866	27.54	17.63	1.55
	107.72	21.48	73.48	-0.00	0.0661	11.45	504.0	381.85	0.0910	825.9	14.867	27.53	17.63	1.55
	108.72	21.50	73.48	0.00	0.0660	11.45	503.9	381.77	0.0910	826.2	14.872	27.54	17.63	1.55
	109.70	21.48	73.46	0.00	0.0661	11.45	503.7	381.78	0.0910	825.5	14.860	27.53	17.62	1.56
	110.71	21.48	73.48	0.00	0.0660	11.45	503.9	381.77	0.0911	827.9	14.902	27.60	17.66	1.56
	111.71	21.54	73.46	-0.00	0.0660	11.45	503.8	381.90	0.0914	830.5	14.949	27.70	17.72	1.55
	112.73	21.50	73.46	-0.00	0.0660	11.45	503.8	381.83	0.0912	829.3	14.927	27.65	17.69	1.56
	113.79	21.50	73.46	0.00	0.0659	11.42	502.3	380.71	0.0913	830.4	14.946	27.69	17.71	1.55
	114.74	21.50	73.46	-0.00	0.0658	11.42	502.3	380.73	0.0917	832.6	14.988	27.77	17.76	1.56
	115.72	21.52	73.48	0.00	0.0659	11.41	502.2	380.51	0.0913	831.1	14.960	27.71	17.73	1.56
	116.74	21.50	73.48	-0.00	0.0660	11.43	502.9	380.99	0.0915	833.7	15.007	27.79	17.78	1.56
	117.72	21.50	73.48	0.00	0.0659	11.41	502.2	380.51	0.0917	835.4	15.037	27.85	17.81	1.56
	118.73	21.52	73.48	-0.00	0.0659	11.42	502.4	380.65	0.0916	834.4	15.019	27.82	17.79	1.56
	119.73	21.52	73.51	-0.00	0.0658	11.41	502.0	380.22	0.0915	833.4	15.001	27.77	17.77	1.56
	120.71	21.52	73.48	0.00	0.0660	11.43	502.7	380.91	0.0915	832.5	14.986	27.76	17.76	1.56
	121.71	21.52	73.48	0.00	0.0660	11.42	502.7	380.89	0.0914	832.5	14.986	27.76	17.76	1.56
	122.79	21.52	73.48	0.00	0.0659	11.42	502.7	380.87	0.0916	833.6	15.005	27.79	17.78	1.56
