Jul 22 2015 at 15:56:40
Frequency: 1.00Hz.
CO2
Zero:  Value:0.95  Date:18 Mar 2005	 at 07:22:33	
Span:  Value:1.00  Date:18 Mar 2005	 at 07:25:09	
H2O
Zero:  Value:0.71  Date:18 Mar 2005	 at 07:52:31	
Span:  Value:0.99  Date:18 Mar 2005	 at 11:44:01	
	Relative Time	Temperature	Pressure	Aux Input	CO2 Absorptance	CO2 mmol/m3	CO2 mg/m3	CO2 umol/mol	H2O Absorptance	H2O mmol/m3	H2O g/m3	H2O mmol/mol	H2O(°C)	Cooler Voltage
	0.28	37.47	75.59	-0.00	0.0691	12.04	530.0	411.48	0.0468	313.2	5.637	10.70	3.86	1.76
	1.28	37.42	75.57	0.00	0.0691	12.03	529.2	410.95	0.0472	316.5	5.696	10.81	4.01	1.76
	2.28	37.49	75.59	0.00	0.0690	12.01	528.4	410.31	0.0471	316.6	5.699	10.82	4.02	1.76
	3.29	37.49	75.62	-0.00	0.0690	12.03	529.1	410.71	0.0473	319.3	5.748	10.91	4.14	1.76
	4.28	37.52	75.59	0.00	0.0690	12.02	528.9	410.71	0.0474	321.3	5.784	10.98	4.23	1.76
	5.29	37.52	75.59	0.00	0.0689	12.01	528.7	410.53	0.0471	318.6	5.735	10.89	4.11	1.76
	6.29	37.54	75.59	0.00	0.0687	11.95	526.0	408.47	0.0471	318.0	5.724	10.87	4.08	1.76
	7.29	37.54	75.59	0.00	0.0685	11.92	524.5	407.37	0.0470	316.8	5.702	10.82	4.03	1.76
	8.28	37.60	75.59	0.00	0.0687	11.95	525.9	408.50	0.0475	320.4	5.767	10.95	4.19	1.76
	9.27	37.57	75.57	0.00	0.0686	11.94	525.3	408.14	0.0475	321.7	5.791	11.00	4.25	1.76
	10.28	37.54	75.59	0.00	0.0687	11.96	526.1	408.61	0.0476	321.8	5.792	11.00	4.25	1.76
	11.28	37.52	75.59	-0.00	0.0687	11.96	526.3	408.69	0.0477	324.3	5.838	11.08	4.36	1.76
	12.28	37.51	75.57	0.00	0.0687	11.95	525.8	408.45	0.0477	323.7	5.826	11.06	4.33	1.76
	13.26	37.52	75.62	0.00	0.0685	11.93	525.0	407.54	0.0480	326.7	5.881	11.16	4.47	1.76
	14.27	37.51	75.59	0.00	0.0685	11.91	524.2	407.03	0.0477	323.0	5.814	11.04	4.30	1.76
	15.29	37.46	75.65	-0.00	0.0685	11.93	524.9	407.28	0.0482	328.8	5.919	11.22	4.56	1.77
	16.27	37.49	75.59	0.00	0.0686	11.93	524.9	407.54	0.0484	328.3	5.910	11.22	4.54	1.77
	17.29	37.50	75.59	0.00	0.0685	11.91	524.2	407.05	0.0483	328.7	5.916	11.23	4.55	1.76
	18.27	37.46	75.59	0.00	0.0684	11.90	523.7	406.60	0.0479	326.2	5.872	11.14	4.44	1.76
	19.28	37.52	75.62	0.00	0.0684	11.88	522.9	405.89	0.0477	322.3	5.801	11.01	4.27	1.76
	20.28	37.52	75.59	-0.00	0.0684	11.91	524.0	406.89	0.0482	326.7	5.880	11.16	4.47	1.76
	21.28	37.53	75.59	0.00	0.0684	11.88	522.5	405.80	0.0487	335.1	6.032	11.45	4.83	1.77
	22.28	37.54	75.59	0.00	0.0685	11.90	523.8	406.79	0.0488	334.7	6.025	11.44	4.81	1.77
	23.28	37.60	75.59	-0.00	0.0685	11.92	524.4	407.36	0.0499	349.1	6.283	11.93	5.42	1.76
	24.29	37.53	75.57	-0.00	0.0682	11.85	521.3	404.98	0.0482	329.8	5.936	11.27	4.60	1.76
	25.37	37.53	75.59	-0.00	0.0682	11.83	520.6	404.27	0.0487	328.7	5.917	11.23	4.55	1.77
	26.27	37.57	75.59	0.00	0.0681	11.84	521.1	404.73	0.0484	330.6	5.951	11.30	4.64	1.77
	27.30	37.56	75.59	-0.00	0.0682	11.83	520.6	404.33	0.0479	325.1	5.851	11.11	4.40	1.77
	28.28	37.57	75.62	0.00	0.0682	11.84	520.9	404.44	0.0477	324.6	5.842	11.09	4.38	1.77
	29.28	37.58	75.59	0.00	0.0681	11.84	520.8	404.50	0.0479	324.0	5.832	11.07	4.35	1.76
	30.30	37.56	75.54	-0.00	0.0682	11.84	520.8	404.77	0.0482	326.0	5.868	11.15	4.44	1.77
	31.29	37.65	75.59	-0.00	0.0684	11.88	522.9	406.19	0.0496	339.8	6.117	11.62	5.04	1.77
	32.29	37.59	75.57	0.00	0.0683	11.88	522.6	406.09	0.0499	341.7	6.151	11.68	5.11	1.77
	33.27	37.56	75.62	0.00	0.0684	11.91	523.9	406.71	0.0505	350.0	6.299	11.96	5.46	1.77
	34.29	37.61	75.59	0.00	0.0684	11.90	523.6	406.73	0.0503	350.7	6.313	11.99	5.49	1.77
	35.29	37.64	75.59	-0.00	0.0684	11.90	523.6	406.75	0.0504	348.2	6.268	11.90	5.39	1.77
	36.29	37.62	75.59	0.00	0.0683	11.87	522.2	405.63	0.0498	342.4	6.164	11.70	5.15	1.77
	37.30	37.66	75.59	-0.00	0.0684	11.89	523.0	406.32	0.0506	349.6	6.292	11.95	5.44	1.77
	38.28	37.66	75.59	-0.00	0.0684	11.89	523.0	406.30	0.0506	347.4	6.253	11.87	5.35	1.77
	39.30	37.65	75.57	-0.00	0.0683	11.88	522.8	406.26	0.0505	348.7	6.277	11.92	5.41	1.77
	40.28	37.65	75.59	0.00	0.0680	11.81	519.7	403.78	0.0493	340.9	6.137	11.65	5.08	1.77
	41.28	37.65	75.59	0.00	0.0683	11.83	520.6	404.45	0.0506	341.7	6.151	11.68	5.12	1.77
	42.28	37.62	75.57	0.00	0.0680	11.81	519.5	403.72	0.0493	342.1	6.158	11.70	5.13	1.77
	43.29	37.68	75.59	-0.00	0.0680	11.82	520.2	404.17	0.0495	343.3	6.179	11.73	5.18	1.77
	44.27	37.68	75.59	0.00	0.0682	11.81	519.5	403.60	0.0501	342.5	6.165	11.71	5.15	1.77
	45.27	37.68	75.59	0.00	0.0682	11.84	521.1	404.88	0.0502	347.9	6.262	11.89	5.37	1.77
	46.27	37.70	75.59	0.00	0.0680	11.80	519.3	403.50	0.0500	344.4	6.198	11.77	5.23	1.77
	47.27	37.69	75.57	0.00	0.0680	11.80	519.4	403.69	0.0504	347.5	6.254	11.88	5.36	1.77
	48.30	37.70	75.59	-0.00	0.0681	11.78	518.5	402.91	0.0507	348.6	6.275	11.92	5.41	1.77
	49.27	37.73	75.59	0.00	0.0684	11.89	523.1	406.46	0.0513	357.2	6.429	12.21	5.76	1.77
	50.28	37.73	75.57	0.00	0.0682	11.84	520.8	404.86	0.0508	349.5	6.290	11.95	5.44	1.77
	51.28	37.68	75.57	-0.00	0.0683	11.84	521.0	404.90	0.0511	353.3	6.360	12.08	5.60	1.77
	52.28	37.74	75.62	0.00	0.0683	11.83	520.4	404.26	0.0508	350.3	6.305	11.97	5.48	1.77
	53.27	37.70	75.59	-0.00	0.0682	11.88	522.7	406.15	0.0511	358.2	6.447	12.25	5.80	1.77
	54.27	37.73	75.62	0.00	0.0682	11.85	521.4	405.04	0.0512	356.2	6.412	12.18	5.72	1.77
	55.29	37.71	75.59	0.00	0.0683	11.86	521.8	405.42	0.0514	356.7	6.421	12.20	5.74	1.77
	56.30	37.73	75.59	0.00	0.0683	11.87	522.4	405.92	0.0515	358.6	6.455	12.26	5.81	1.77
	57.28	37.70	75.57	0.00	0.0684	11.87	522.2	405.90	0.0519	361.0	6.498	12.35	5.91	1.77
	58.28	37.67	75.59	0.00	0.0683	11.88	522.7	406.08	0.0518	362.7	6.529	12.40	5.98	1.77
	59.28	37.67	75.59	0.00	0.0683	11.87	522.3	405.81	0.0515	359.6	6.474	12.29	5.85	1.77
	60.28	37.70	75.59	0.00	0.0683	11.85	521.6	405.27	0.0518	359.4	6.470	12.29	5.85	1.77
	61.28	37.68	75.59	0.00	0.0682	11.84	520.9	404.69	0.0518	359.3	6.468	12.28	5.84	1.77
	62.29	37.66	75.59	-0.00	0.0682	11.85	521.3	405.01	0.0517	361.5	6.506	12.36	5.93	1.77
	63.29	37.66	75.54	0.00	0.0680	11.80	519.2	403.68	0.0514	357.6	6.437	12.23	5.77	1.77
	64.27	37.62	75.59	0.00	0.0679	11.79	518.8	403.01	0.0515	357.8	6.441	12.23	5.78	1.77
	65.30	37.64	75.59	-0.00	0.0680	11.80	519.3	403.42	0.0516	359.3	6.467	12.28	5.84	1.77
	66.27	37.66	75.59	0.00	0.0681	11.81	519.6	403.68	0.0517	360.4	6.487	12.32	5.88	1.77
	67.28	37.58	75.57	0.00	0.0681	11.83	520.4	404.30	0.0518	360.5	6.488	12.32	5.88	1.77
	68.27	37.69	75.59	0.00	0.0682	11.84	520.8	404.69	0.0522	365.0	6.569	12.48	6.07	1.77
	69.30	37.62	75.59	-0.00	0.0680	11.80	519.2	403.35	0.0519	362.5	6.526	12.39	5.97	1.77
	70.26	37.67	75.57	0.00	0.0681	11.81	519.5	403.72	0.0523	364.8	6.566	12.47	6.06	1.77
	71.29	37.70	75.57	-0.00	0.0681	11.83	520.6	404.66	0.0524	368.3	6.630	12.60	6.20	1.77
	72.28	37.64	75.59	-0.00	0.0682	11.85	521.4	405.07	0.0529	372.1	6.698	12.72	6.35	1.77
	73.27	37.69	75.59	0.00	0.0680	11.84	521.0	404.85	0.0524	370.6	6.671	12.67	6.29	1.77
	74.35	37.68	75.59	0.00	0.0680	11.79	518.7	402.98	0.0524	367.0	6.606	12.55	6.15	1.78
	75.27	37.67	75.59	0.00	0.0682	11.84	520.9	404.67	0.0529	370.5	6.669	12.66	6.28	1.77
	76.28	37.67	75.59	-0.00	0.0681	11.83	520.7	404.57	0.0525	369.2	6.646	12.62	6.23	1.77
	77.27	37.67	75.59	0.00	0.0683	11.84	520.9	404.67	0.0530	371.4	6.684	12.69	6.32	1.78
	78.28	37.70	75.59	-0.00	0.0682	11.85	521.2	405.00	0.0530	372.7	6.709	12.74	6.37	1.78
	79.28	37.69	75.62	-0.00	0.0682	11.84	520.9	404.56	0.0531	373.6	6.725	12.77	6.41	1.78
	80.29	37.69	75.59	-0.00	0.0682	11.85	521.6	405.29	0.0530	373.7	6.727	12.78	6.41	1.78
	81.26	37.70	75.62	0.00	0.0679	11.80	519.1	403.23	0.0522	366.1	6.589	12.51	6.11	1.78
	82.35	37.73	75.59	-0.00	0.0680	11.79	518.8	403.13	0.0526	368.0	6.623	12.58	6.19	1.78
	83.26	37.68	75.59	0.00	0.0681	11.82	520.0	404.00	0.0528	371.1	6.679	12.68	6.31	1.78
	84.27	37.68	75.57	0.00	0.0679	11.78	518.1	402.70	0.0529	371.3	6.684	12.70	6.32	1.78
	85.27	37.73	75.59	0.00	0.0680	11.78	518.5	402.93	0.0528	371.0	6.678	12.68	6.31	1.78
	86.28	37.70	75.57	0.00	0.0682	11.82	520.3	404.42	0.0531	374.0	6.731	12.79	6.42	1.78
	87.28	37.70	75.62	0.00	0.0679	11.81	519.6	403.56	0.0530	373.9	6.729	12.78	6.42	1.78
	88.28	37.70	75.59	0.00	0.0680	11.79	518.6	402.93	0.0530	371.6	6.688	12.70	6.33	1.78
	89.28	37.72	75.62	0.00	0.0679	11.77	517.9	402.26	0.0529	370.8	6.674	12.67	6.30	1.78
	90.28	37.68	75.62	-0.00	0.0678	11.76	517.7	402.06	0.0529	372.2	6.700	12.72	6.35	1.78
	91.29	37.69	75.59	-0.00	0.0679	11.76	517.5	402.07	0.0533	374.1	6.735	12.79	6.43	1.78
	92.28	37.68	75.59	0.00	0.0680	11.80	519.4	403.56	0.0534	377.0	6.785	12.89	6.54	1.78
	93.35	37.67	75.57	0.00	0.0679	11.80	519.4	403.69	0.0529	376.1	6.769	12.86	6.50	1.78
	94.30	37.73	75.62	-0.00	0.0679	11.77	517.8	402.23	0.0532	373.6	6.725	12.77	6.41	1.78
	95.35	37.72	75.59	0.00	0.0679	11.77	517.8	402.39	0.0532	374.0	6.733	12.79	6.42	1.78
	96.28	37.73	75.62	0.00	0.0679	11.77	517.8	402.25	0.0532	374.7	6.745	12.81	6.45	1.78
	97.28	37.66	75.59	0.00	0.0679	11.77	517.7	402.21	0.0534	376.0	6.768	12.85	6.50	1.78
	98.28	37.75	75.59	0.00	0.0678	11.78	518.1	402.65	0.0534	376.6	6.779	12.88	6.52	1.78
	99.28	37.75	75.59	0.00	0.0679	11.77	517.9	402.49	0.0534	376.5	6.777	12.87	6.52	1.78
	100.28	37.71	75.59	0.00	0.0679	11.77	517.8	402.36	0.0535	376.5	6.778	12.87	6.52	1.78
	101.28	37.70	75.59	0.00	0.0679	11.78	518.4	402.82	0.0537	378.8	6.819	12.95	6.61	1.78
	102.28	37.70	75.54	0.00	0.0679	11.78	518.3	403.01	0.0538	379.9	6.838	13.00	6.65	1.78
	103.29	37.70	75.59	-0.00	0.0680	11.80	519.0	403.29	0.0538	381.0	6.857	13.02	6.69	1.78
	104.29	37.70	75.59	-0.00	0.0680	11.81	519.4	403.60	0.0540	382.1	6.878	13.06	6.73	1.78
	105.27	37.68	75.59	0.00	0.0681	11.81	519.8	403.89	0.0543	386.2	6.951	13.20	6.89	1.78
	106.28	37.72	75.59	-0.00	0.0678	11.76	517.5	402.11	0.0539	380.8	6.855	13.02	6.69	1.78
	107.27	37.70	75.59	0.00	0.0679	11.77	518.0	402.46	0.0540	381.7	6.870	13.05	6.72	1.78
	108.28	37.73	75.59	-0.00	0.0680	11.80	519.0	403.32	0.0540	382.5	6.885	13.08	6.75	1.78
	109.26	37.69	75.59	0.00	0.0680	11.80	519.0	403.27	0.0539	381.7	6.871	13.05	6.72	1.79
	110.28	37.70	75.59	-0.00	0.0677	11.74	516.5	401.29	0.0538	380.2	6.843	13.00	6.66	1.78
	111.31	37.70	75.59	-0.00	0.0679	11.76	517.2	401.89	0.0539	381.8	6.872	13.05	6.72	1.78
	112.27	37.73	75.62	0.00	0.0680	11.80	519.3	403.41	0.0542	383.0	6.895	13.09	6.77	1.78
	113.27	37.73	75.59	0.00	0.0680	11.79	518.9	403.20	0.0536	379.0	6.822	12.96	6.62	1.78
	114.27	37.70	75.59	0.00	0.0678	11.76	517.5	402.10	0.0536	378.7	6.816	12.95	6.60	1.79
	115.27	37.72	75.62	0.00	0.0678	11.75	516.9	401.55	0.0541	382.9	6.892	13.09	6.76	1.79
	116.28	37.77	75.59	-0.00	0.0679	11.77	517.7	402.39	0.0539	381.1	6.859	13.03	6.70	1.78
	117.27	37.77	75.59	0.00	0.0678	11.76	517.4	402.12	0.0540	382.1	6.878	13.07	6.74	1.78
	118.36	37.79	75.62	-0.00	0.0678	11.76	517.4	402.03	0.0541	383.2	6.897	13.10	6.78	1.78
	119.28	37.77	75.59	-0.00	0.0677	11.75	517.2	401.95	0.0538	381.4	6.866	13.04	6.71	1.79
	120.28	37.73	75.62	0.00	0.0678	11.76	517.4	401.92	0.0538	380.4	6.848	13.00	6.67	1.79
