Jul 22 2015 at 10:20:47
Frequency: 1.00Hz.
CO2
Zero:  Value:0.95  Date:18 Mar 2005	 at 07:22:33	
Span:  Value:1.00  Date:18 Mar 2005	 at 07:25:09	
H2O
Zero:  Value:0.71  Date:18 Mar 2005	 at 07:52:31	
Span:  Value:0.99  Date:18 Mar 2005	 at 11:44:01	
	Relative Time	Temperature	Pressure	Aux Input	CO2 Absorptance	CO2 mmol/m3	CO2 mg/m3	CO2 umol/mol	H2O Absorptance	H2O mmol/m3	H2O g/m3	H2O mmol/mol	H2O(°C)	Cooler Voltage
	0.86	29.86	73.48	-0.00	0.0671	11.69	514.3	400.73	0.0753	617.3	11.111	21.16	13.52	1.65
	1.86	29.85	73.48	0.00	0.0673	11.73	516.1	402.08	0.0751	618.4	11.132	21.20	13.55	1.65
	2.82	29.85	73.51	0.00	0.0673	11.73	516.3	402.15	0.0745	611.6	11.008	20.96	13.38	1.65
	3.85	29.87	73.48	-0.00	0.0672	11.71	515.4	401.58	0.0742	607.1	10.928	20.81	13.27	1.65
	4.84	29.88	73.51	-0.00	0.0672	11.70	514.9	401.10	0.0752	620.3	11.165	21.26	13.60	1.65
	5.83	29.87	73.51	0.00	0.0671	11.68	514.1	400.45	0.0750	612.0	11.016	20.98	13.39	1.65
	6.93	29.88	73.51	-0.00	0.0670	11.67	513.4	399.90	0.0749	616.4	11.095	21.12	13.50	1.65
	7.85	29.87	73.48	-0.00	0.0669	11.64	512.3	399.15	0.0747	616.3	11.094	21.13	13.50	1.65
	8.83	29.89	73.51	0.00	0.0670	11.66	513.2	399.75	0.0746	610.8	10.995	20.94	13.36	1.65
	9.84	29.86	73.48	-0.00	0.0669	11.65	512.8	399.56	0.0746	613.4	11.041	21.03	13.42	1.65
	10.86	29.86	73.48	-0.00	0.0670	11.66	513.1	399.78	0.0736	602.6	10.848	20.66	13.15	1.65
	11.84	29.90	73.51	0.00	0.0669	11.65	512.5	399.19	0.0748	613.0	11.034	21.01	13.42	1.65
	12.82	29.92	73.48	0.00	0.0670	11.65	512.6	399.42	0.0744	610.4	10.986	20.93	13.35	1.65
	13.84	29.92	73.48	0.00	0.0670	11.66	513.1	399.83	0.0738	602.1	10.838	20.65	13.14	1.65
	14.84	29.92	73.51	-0.00	0.0669	11.66	513.2	399.77	0.0740	602.3	10.841	20.64	13.15	1.65
	15.85	29.89	73.51	0.00	0.0670	11.67	513.4	399.90	0.0738	602.7	10.849	20.66	13.16	1.65
	16.83	29.88	73.48	0.00	0.0669	11.65	512.8	399.56	0.0735	600.1	10.801	20.57	13.09	1.65
	17.83	29.93	73.51	0.00	0.0669	11.65	512.4	399.18	0.0731	594.7	10.704	20.38	12.95	1.65
	18.91	29.91	73.48	0.00	0.0670	11.65	512.8	399.60	0.0732	594.0	10.693	20.37	12.94	1.65
	19.84	29.89	73.48	0.00	0.0670	11.67	513.3	399.99	0.0733	596.0	10.728	20.44	12.99	1.65
	20.83	29.93	73.48	0.00	0.0669	11.63	511.9	398.94	0.0733	596.7	10.740	20.46	13.00	1.65
	21.84	29.93	73.51	-0.00	0.0670	11.68	513.8	400.27	0.0733	596.8	10.742	20.46	13.01	1.65
	22.85	29.91	73.48	-0.00	0.0670	11.68	513.8	400.36	0.0731	594.2	10.696	20.37	12.94	1.65
	23.85	29.89	73.48	-0.00	0.0671	11.68	514.1	400.63	0.0734	596.6	10.739	20.46	13.00	1.65
	24.85	29.92	73.51	-0.00	0.0671	11.67	513.5	400.06	0.0733	596.3	10.733	20.44	12.99	1.65
	25.91	29.88	73.48	0.00	0.0670	11.67	513.3	399.94	0.0734	596.6	10.739	20.45	13.00	1.65
	26.83	29.90	73.54	0.00	0.0670	11.66	513.1	399.56	0.0734	597.8	10.761	20.48	13.03	1.65
	27.85	29.89	73.48	-0.00	0.0667	11.61	510.7	397.94	0.0732	595.8	10.724	20.43	12.98	1.65
	28.86	29.89	73.49	-0.00	0.0670	11.67	513.6	400.21	0.0736	599.1	10.784	20.54	13.06	1.65
	29.86	29.93	73.51	-0.00	0.0671	11.67	513.3	399.93	0.0736	599.0	10.782	20.53	13.06	1.65
	30.84	29.93	73.46	0.00	0.0668	11.64	512.1	399.21	0.0734	597.4	10.754	20.49	13.02	1.65
	31.86	29.93	73.49	-0.00	0.0670	11.67	513.5	400.20	0.0736	600.4	10.807	20.59	13.10	1.65
	32.85	29.90	73.48	-0.00	0.0668	11.60	510.6	397.88	0.0735	598.5	10.773	20.52	13.05	1.65
	33.84	29.91	73.48	0.00	0.0670	11.67	513.6	400.23	0.0737	601.7	10.830	20.63	13.13	1.65
	34.85	29.91	73.48	-0.00	0.0670	11.67	513.6	400.24	0.0737	601.0	10.818	20.61	13.11	1.65
	35.85	29.95	73.51	-0.00	0.0670	11.67	513.6	400.15	0.0737	601.0	10.817	20.60	13.11	1.65
	36.85	29.92	73.51	0.00	0.0669	11.65	512.5	399.27	0.0736	600.3	10.805	20.58	13.10	1.65
	37.85	29.95	73.48	-0.00	0.0670	11.67	513.7	400.35	0.0738	603.0	10.854	20.68	13.17	1.65
	38.86	29.93	73.48	-0.00	0.0669	11.64	512.2	399.15	0.0737	601.9	10.834	20.64	13.14	1.65
	39.84	29.93	73.51	-0.00	0.0669	11.65	512.5	399.28	0.0738	601.5	10.826	20.62	13.13	1.65
	40.84	29.95	73.49	0.00	0.0670	11.65	512.6	399.47	0.0739	603.4	10.861	20.69	13.18	1.65
	41.84	29.93	73.48	0.00	0.0668	11.62	511.3	398.46	0.0738	602.1	10.838	20.65	13.14	1.65
	42.85	29.93	73.48	-0.00	0.0670	11.66	513.3	399.99	0.0740	605.6	10.901	20.77	13.23	1.65
	43.84	29.93	73.51	0.00	0.0670	11.66	513.0	399.65	0.0741	605.8	10.904	20.77	13.24	1.65
	44.85	29.95	73.48	-0.00	0.0668	11.62	511.5	398.63	0.0741	605.7	10.902	20.77	13.23	1.65
	45.85	29.93	73.48	0.00	0.0667	11.61	510.8	398.10	0.0741	606.1	10.910	20.78	13.24	1.65
	46.83	29.97	73.51	0.00	0.0668	11.61	510.7	397.96	0.0742	606.1	10.910	20.78	13.25	1.65
	47.83	29.99	73.48	0.00	0.0667	11.61	510.8	398.15	0.0742	606.9	10.923	20.81	13.27	1.65
	48.84	29.95	73.51	-0.00	0.0669	11.65	512.4	399.22	0.0743	609.5	10.972	20.90	13.33	1.65
	49.83	29.99	73.48	0.00	0.0668	11.62	511.3	398.55	0.0743	608.0	10.943	20.85	13.29	1.65
	50.84	29.99	73.48	0.00	0.0667	11.60	510.3	397.79	0.0745	609.5	10.971	20.91	13.33	1.65
	51.84	29.97	73.48	-0.00	0.0669	11.65	512.4	399.42	0.0746	611.9	11.014	20.98	13.39	1.65
	52.85	29.97	73.48	-0.00	0.0668	11.62	511.3	398.55	0.0745	609.6	10.973	20.91	13.33	1.65
	53.82	30.01	73.48	0.00	0.0668	11.63	511.7	398.92	0.0745	610.9	10.996	20.95	13.37	1.65
	54.83	29.96	73.46	0.00	0.0669	11.64	512.3	399.41	0.0746	612.4	11.023	21.01	13.40	1.65
	55.85	29.99	73.48	0.00	0.0668	11.62	511.3	398.51	0.0745	611.1	11.000	20.96	13.37	1.65
	56.83	29.99	73.48	0.00	0.0667	11.60	510.4	397.85	0.0745	610.4	10.987	20.93	13.36	1.65
	57.92	30.01	73.51	-0.00	0.0667	11.58	509.5	397.08	0.0745	609.4	10.969	20.90	13.33	1.65
	58.83	29.96	73.48	0.00	0.0666	11.58	509.5	397.06	0.0745	610.0	10.980	20.92	13.34	1.65
	59.84	30.03	73.51	0.00	0.0666	11.58	509.7	397.20	0.0745	610.9	10.996	20.95	13.37	1.65
	60.86	29.99	73.51	-0.00	0.0667	11.59	510.0	397.41	0.0747	613.6	11.045	21.04	13.44	1.65
	61.85	29.96	73.48	-0.00	0.0669	11.63	511.8	398.88	0.0750	616.9	11.104	21.16	13.52	1.65
	62.85	30.01	73.54	0.00	0.0666	11.59	510.1	397.34	0.0748	615.4	11.077	21.09	13.48	1.65
	63.85	30.01	73.48	-0.00	0.0667	11.59	509.8	397.42	0.0750	615.7	11.083	21.12	13.49	1.65
	64.85	30.01	73.51	-0.00	0.0667	11.59	510.0	397.47	0.0750	616.1	11.089	21.12	13.50	1.65
	65.83	29.99	73.51	0.00	0.0668	11.61	510.7	397.94	0.0750	615.7	11.083	21.11	13.49	1.65
	66.92	30.01	73.51	0.00	0.0667	11.60	510.5	397.85	0.0750	617.3	11.111	21.16	13.53	1.65
	67.83	29.99	73.48	0.00	0.0669	11.63	511.8	398.94	0.0751	619.1	11.144	21.23	13.57	1.65
	68.84	30.01	73.54	0.00	0.0667	11.58	509.3	396.76	0.0750	616.3	11.093	21.12	13.50	1.65
	69.90	30.03	73.51	0.00	0.0667	11.58	509.5	397.09	0.0750	616.3	11.093	21.13	13.50	1.65
	70.84	29.98	73.51	0.00	0.0667	11.59	510.1	397.47	0.0752	618.2	11.128	21.19	13.55	1.65
	71.84	30.03	73.48	0.00	0.0668	11.62	511.1	398.41	0.0754	621.0	11.178	21.30	13.62	1.65
	72.82	30.00	73.51	0.00	0.0668	11.62	511.4	398.50	0.0753	621.2	11.181	21.30	13.62	1.65
	73.91	30.06	73.51	-0.00	0.0668	11.61	511.0	398.24	0.0753	620.1	11.162	21.27	13.60	1.65
	74.83	30.02	73.48	-0.00	0.0668	11.63	511.8	399.00	0.0754	622.0	11.197	21.34	13.65	1.65
	75.85	30.05	73.51	-0.00	0.0668	11.62	511.4	398.54	0.0753	621.6	11.190	21.32	13.64	1.65
	76.83	30.05	73.48	-0.00	0.0668	11.62	511.2	398.52	0.0755	621.7	11.191	21.33	13.64	1.65
	77.83	30.03	73.51	0.00	0.0668	11.62	511.2	398.35	0.0755	622.6	11.207	21.35	13.66	1.65
	78.83	30.05	73.48	-0.00	0.0668	11.62	511.3	398.62	0.0755	623.2	11.218	21.38	13.68	1.65
	79.84	30.05	73.48	0.00	0.0667	11.61	510.7	398.17	0.0756	622.8	11.210	21.36	13.67	1.65
	80.92	30.05	73.51	-0.00	0.0667	11.61	510.8	398.11	0.0758	627.2	11.290	21.51	13.78	1.65
	81.82	30.03	73.51	0.00	0.0667	11.60	510.4	397.77	0.0755	623.7	11.227	21.39	13.69	1.65
	82.85	30.03	73.53	-0.00	0.0666	11.58	509.3	396.77	0.0755	621.0	11.178	21.29	13.62	1.65
	83.83	30.06	73.46	0.00	0.0667	11.59	509.9	397.67	0.0757	624.9	11.249	21.45	13.72	1.65
	84.83	30.03	73.48	0.00	0.0665	11.56	508.8	396.68	0.0757	625.0	11.250	21.44	13.72	1.65
	85.85	30.08	73.48	0.00	0.0664	11.54	507.8	395.97	0.0754	622.9	11.212	21.37	13.67	1.65
	86.83	30.12	73.48	0.00	0.0666	11.56	508.7	396.72	0.0756	624.1	11.234	21.41	13.70	1.65
	87.84	30.09	73.51	0.00	0.0666	11.57	509.2	396.89	0.0758	625.0	11.250	21.44	13.72	1.65
	88.83	30.07	73.54	0.00	0.0665	11.56	508.8	396.45	0.0756	625.6	11.261	21.45	13.74	1.65
	89.86	30.07	73.48	-0.00	0.0665	11.55	508.3	396.32	0.0755	623.8	11.228	21.40	13.69	1.66
	90.82	30.06	73.48	0.00	0.0666	11.57	508.9	396.78	0.0757	624.8	11.246	21.43	13.72	1.65
	91.85	30.08	73.51	0.00	0.0667	11.61	510.7	398.09	0.0761	630.5	11.349	21.62	13.86	1.65
	92.90	30.06	73.48	0.00	0.0667	11.59	510.2	397.76	0.0758	627.7	11.299	21.54	13.79	1.65
	93.83	30.06	73.51	0.00	0.0666	11.58	509.4	397.01	0.0758	626.3	11.273	21.48	13.75	1.66
	94.83	30.06	73.53	-0.00	0.0667	11.60	510.4	397.64	0.0762	629.5	11.330	21.58	13.83	1.65
	95.83	30.06	73.51	0.00	0.0667	11.59	509.8	397.36	0.0759	627.4	11.293	21.51	13.78	1.65
	96.84	30.09	73.53	-0.00	0.0666	11.57	509.3	396.83	0.0757	626.6	11.278	21.48	13.76	1.66
	97.83	30.08	73.51	0.00	0.0666	11.58	509.6	397.17	0.0760	627.9	11.302	21.53	13.79	1.65
	98.83	30.06	73.46	0.00	0.0666	11.57	509.2	397.15	0.0760	629.0	11.322	21.59	13.82	1.65
	99.84	30.11	73.51	0.00	0.0666	11.56	508.8	396.64	0.0760	628.3	11.309	21.55	13.80	1.66
	100.82	30.10	73.48	0.00	0.0667	11.59	510.0	397.70	0.0761	630.6	11.351	21.64	13.86	1.66
	101.84	30.08	73.51	0.00	0.0667	11.60	510.2	397.69	0.0762	631.4	11.365	21.65	13.88	1.66
	102.84	30.08	73.48	-0.00	0.0667	11.60	510.3	397.88	0.0761	630.7	11.353	21.64	13.86	1.66
	103.83	30.06	73.48	0.00	0.0666	11.58	509.4	397.19	0.0760	629.4	11.329	21.59	13.83	1.65
	104.82	30.08	73.51	0.00	0.0665	11.55	508.2	396.15	0.0760	628.6	11.314	21.56	13.81	1.66
	105.83	30.08	73.54	0.00	0.0667	11.59	509.8	397.21	0.0762	631.8	11.373	21.66	13.89	1.66
	106.84	30.13	73.49	-0.00	0.0666	11.56	508.5	396.52	0.0761	629.2	11.325	21.59	13.83	1.66
	107.86	30.12	73.48	-0.00	0.0667	11.59	510.0	397.74	0.0763	632.1	11.377	21.69	13.90	1.66
	108.84	30.15	73.48	-0.00	0.0667	11.60	510.6	398.18	0.0764	635.0	11.430	21.79	13.97	1.66
	109.84	30.13	73.48	0.00	0.0665	11.56	508.8	396.78	0.0761	631.3	11.363	21.66	13.88	1.66
	110.84	30.12	73.48	0.00	0.0666	11.56	508.8	396.81	0.0762	631.1	11.360	21.65	13.87	1.66
	111.84	30.17	73.51	0.00	0.0667	11.58	509.6	397.30	0.0763	632.5	11.386	21.70	13.91	1.66
	112.83	30.12	73.51	-0.00	0.0665	11.56	508.5	396.42	0.0760	629.6	11.333	21.60	13.84	1.66
	113.85	30.12	73.48	0.00	0.0665	11.55	508.0	396.16	0.0760	629.6	11.333	21.60	13.84	1.66
	114.83	30.14	73.51	0.00	0.0666	11.58	509.4	397.16	0.0760	628.6	11.315	21.56	13.81	1.66
	115.85	30.12	73.48	-0.00	0.0666	11.58	509.5	397.29	0.0761	630.0	11.340	21.62	13.85	1.66
	116.84	30.15	73.51	-0.00	0.0667	11.58	509.4	397.16	0.0760	628.8	11.319	21.57	13.82	1.66
	117.92	30.15	73.53	-0.00	0.0666	11.58	509.4	396.99	0.0761	630.1	11.341	21.61	13.85	1.66
	118.83	30.10	73.48	0.00	0.0666	11.57	509.3	397.13	0.0762	632.4	11.383	21.70	13.91	1.66
	119.84	30.14	73.51	0.00	0.0666	11.56	508.9	396.71	0.0760	629.2	11.325	21.58	13.83	1.66
	120.84	30.15	73.51	-0.00	0.0666	11.57	509.0	396.84	0.0760	628.1	11.305	21.55	13.80	1.66
	121.85	30.15	73.48	-0.00	0.0666	11.58	509.5	397.36	0.0762	630.9	11.357	21.65	13.87	1.66
