Jul 22 2015 at 14:47:06
Frequency: 1.00Hz.
CO2
Zero:  Value:0.95  Date:18 Mar 2005	 at 07:22:33	
Span:  Value:1.00  Date:18 Mar 2005	 at 07:25:09	
H2O
Zero:  Value:0.71  Date:18 Mar 2005	 at 07:52:31	
Span:  Value:0.99  Date:18 Mar 2005	 at 11:44:01	
	Relative Time	Temperature	Pressure	Aux Input	CO2 Absorptance	CO2 mmol/m3	CO2 mg/m3	CO2 umol/mol	H2O Absorptance	H2O mmol/m3	H2O g/m3	H2O mmol/mol	H2O(°C)	Cooler Voltage
	0.36	34.50	75.65	0.00	0.0680	11.82	520.0	399.64	0.0462	310.8	5.594	10.51	3.62	1.79
	1.36	34.50	75.62	-0.00	0.0680	11.79	518.8	398.83	0.0473	315.8	5.684	10.68	3.84	1.79
	2.36	34.50	75.62	0.00	0.0681	11.81	519.5	399.36	0.0466	316.0	5.687	10.69	3.85	1.80
	3.34	34.53	75.62	0.00	0.0680	11.79	518.9	398.92	0.0466	313.2	5.638	10.60	3.73	1.80
	4.35	34.48	75.62	0.00	0.0680	11.78	518.4	398.52	0.0474	319.6	5.752	10.81	4.01	1.80
	5.35	34.53	75.62	-0.00	0.0675	11.71	515.2	396.07	0.0482	327.0	5.886	11.06	4.34	1.79
	6.35	34.51	75.62	0.00	0.0676	11.70	514.7	395.68	0.0483	331.1	5.960	11.20	4.52	1.79
	7.33	34.53	75.62	0.00	0.0677	11.73	516.1	396.80	0.0480	325.6	5.861	11.02	4.28	1.79
	8.35	34.56	75.65	0.00	0.0674	11.68	513.9	394.98	0.0483	329.5	5.932	11.14	4.45	1.80
	9.35	34.56	75.62	0.00	0.0675	11.70	514.6	395.71	0.0483	329.8	5.936	11.16	4.46	1.80
	10.34	34.56	75.59	0.00	0.0676	11.70	514.6	395.81	0.0484	329.3	5.928	11.15	4.45	1.79
	11.34	34.51	75.65	-0.00	0.0674	11.68	513.8	394.84	0.0483	327.8	5.901	11.09	4.38	1.79
	12.36	34.54	75.62	-0.00	0.0675	11.68	514.0	395.19	0.0484	328.8	5.919	11.12	4.42	1.79
	13.34	34.54	75.59	0.00	0.0676	11.70	514.9	396.01	0.0484	329.6	5.933	11.15	4.46	1.80
	14.34	34.53	75.62	0.00	0.0675	11.70	514.7	395.73	0.0492	337.0	6.066	11.40	4.77	1.80
	15.34	34.53	75.65	0.00	0.0674	11.65	512.6	393.94	0.0523	361.1	6.499	12.21	5.76	1.80
	16.35	34.53	75.62	0.00	0.0674	11.67	513.7	394.93	0.0516	354.1	6.374	11.98	5.48	1.79
	17.33	34.61	75.62	0.00	0.0673	11.65	512.7	394.26	0.0510	360.1	6.482	12.19	5.73	1.80
	18.35	34.63	75.62	0.00	0.0672	11.61	510.9	392.89	0.0517	363.2	6.538	12.29	5.86	1.80
	19.33	34.59	75.62	0.00	0.0671	11.62	511.2	393.12	0.0521	363.7	6.547	12.31	5.87	1.80
	20.34	34.60	75.59	-0.00	0.0673	11.63	511.7	393.61	0.0520	361.9	6.515	12.25	5.80	1.80
	21.33	34.61	75.59	0.00	0.0673	11.63	511.6	393.55	0.0523	369.1	6.643	12.49	6.08	1.80
	22.34	34.58	75.62	0.00	0.0672	11.63	511.7	393.43	0.0522	364.4	6.560	12.33	5.90	1.79
	23.34	34.59	75.62	-0.00	0.0673	11.63	511.7	393.51	0.0521	361.8	6.512	12.24	5.80	1.80
	24.35	34.63	75.59	0.00	0.0672	11.63	511.7	393.66	0.0518	361.5	6.507	12.24	5.79	1.80
	25.34	34.60	75.62	0.00	0.0673	11.62	511.1	393.01	0.0519	363.1	6.537	12.29	5.85	1.80
	26.35	34.63	75.65	0.00	0.0671	11.61	510.7	392.61	0.0522	366.0	6.588	12.38	5.97	1.80
	27.35	34.62	75.62	0.00	0.0671	11.58	509.5	391.82	0.0523	366.5	6.597	12.40	5.99	1.80
	28.35	34.63	75.62	0.00	0.0671	11.59	510.1	392.28	0.0522	365.9	6.586	12.38	5.96	1.80
	29.44	34.64	75.62	-0.00	0.0671	11.60	510.5	392.62	0.0526	369.2	6.645	12.49	6.09	1.80
	30.34	34.63	75.65	0.00	0.0669	11.57	509.2	391.49	0.0526	369.4	6.649	12.50	6.10	1.80
	31.34	34.63	75.59	0.00	0.0671	11.59	510.0	392.36	0.0524	367.2	6.610	12.43	6.01	1.80
	32.34	34.65	75.59	0.00	0.0670	11.59	510.2	392.51	0.0521	365.2	6.573	12.36	5.93	1.80
	33.34	34.67	75.59	0.00	0.0671	11.57	509.2	391.78	0.0524	366.6	6.599	12.41	5.99	1.80
	34.35	34.62	75.62	-0.00	0.0670	11.57	509.2	391.58	0.0522	365.2	6.574	12.36	5.93	1.80
	35.37	34.65	75.59	-0.00	0.0670	11.58	509.4	391.89	0.0523	365.4	6.577	12.37	5.94	1.80
	36.41	34.67	75.65	0.00	0.0670	11.57	509.0	391.39	0.0530	371.4	6.686	12.57	6.18	1.80
	37.35	34.67	75.62	0.00	0.0669	11.56	508.6	391.19	0.0534	376.1	6.771	12.73	6.36	1.80
	38.34	34.70	75.65	-0.00	0.0669	11.55	508.3	390.90	0.0533	376.1	6.770	12.73	6.36	1.80
	39.34	34.65	75.62	0.00	0.0669	11.56	508.4	391.05	0.0534	376.9	6.784	12.76	6.39	1.80
	40.34	34.65	75.65	0.00	0.0669	11.56	508.6	391.01	0.0536	378.3	6.810	12.80	6.45	1.80
	41.34	34.65	75.59	0.00	0.0669	11.55	508.4	391.13	0.0536	378.6	6.815	12.82	6.46	1.80
	42.34	34.62	75.62	0.00	0.0670	11.57	509.0	391.46	0.0535	376.7	6.781	12.75	6.38	1.80
	43.34	34.64	75.62	0.00	0.0670	11.57	509.1	391.53	0.0535	377.2	6.789	12.76	6.40	1.80
	44.34	34.60	75.57	0.00	0.0669	11.55	508.2	391.08	0.0536	378.7	6.817	12.82	6.46	1.80
	45.41	34.65	75.62	0.00	0.0669	11.55	508.0	390.71	0.0544	386.0	6.949	13.06	6.74	1.80
	46.35	34.64	75.62	-0.00	0.0669	11.55	508.1	390.80	0.0547	386.9	6.965	13.09	6.77	1.80
	47.35	34.65	75.62	-0.00	0.0670	11.56	508.7	391.23	0.0541	383.5	6.902	12.98	6.64	1.80
	48.33	34.64	75.59	0.00	0.0670	11.56	508.7	391.37	0.0541	383.2	6.898	12.97	6.63	1.80
	49.36	34.67	75.62	-0.00	0.0669	11.55	508.2	390.92	0.0536	378.1	6.806	12.80	6.44	1.80
	50.33	34.65	75.62	0.00	0.0669	11.56	508.6	391.16	0.0536	375.2	6.753	12.70	6.32	1.80
	51.36	34.59	75.65	-0.00	0.0669	11.55	508.3	390.76	0.0533	375.9	6.766	12.71	6.35	1.80
	52.32	34.65	75.65	0.00	0.0669	11.55	508.1	390.68	0.0535	376.2	6.771	12.73	6.36	1.80
	53.37	34.59	75.67	-0.00	0.0669	11.53	507.5	389.94	0.0537	378.2	6.808	12.79	6.44	1.80
	54.35	34.67	75.62	-0.00	0.0669	11.54	507.5	390.39	0.0535	378.3	6.809	12.80	6.44	1.80
	55.35	34.64	75.62	0.00	0.0668	11.53	507.2	390.10	0.0544	385.6	6.941	13.05	6.72	1.80
	56.35	34.67	75.62	0.00	0.0667	11.51	506.5	389.56	0.0558	395.7	7.122	13.39	7.10	1.80
	57.36	34.69	75.59	-0.00	0.0665	11.45	503.8	387.69	0.0572	418.1	7.526	14.16	7.91	1.80
	58.34	34.66	75.59	0.00	0.0666	11.47	504.6	388.24	0.0565	407.7	7.339	13.80	7.54	1.80
	59.34	34.68	75.62	0.00	0.0666	11.47	504.7	388.23	0.0561	404.4	7.278	13.69	7.42	1.80
	60.36	34.69	75.59	0.00	0.0665	11.47	504.6	388.26	0.0568	405.7	7.303	13.74	7.47	1.80
	61.42	34.67	75.62	0.00	0.0666	11.48	505.3	388.66	0.0561	400.8	7.215	13.56	7.29	1.80
	62.35	34.66	75.59	-0.00	0.0666	11.47	504.8	388.38	0.0561	403.6	7.265	13.66	7.39	1.80
	63.35	34.71	75.62	-0.00	0.0665	11.47	504.6	388.15	0.0561	404.3	7.277	13.68	7.41	1.80
	64.35	34.68	75.62	0.00	0.0666	11.47	504.6	388.15	0.0568	408.0	7.344	13.81	7.55	1.80
	65.35	34.74	75.62	-0.00	0.0665	11.47	504.7	388.26	0.0566	408.3	7.349	13.82	7.56	1.80
	66.35	34.73	75.62	-0.00	0.0665	11.49	505.4	388.81	0.0570	413.9	7.450	14.01	7.76	1.80
	67.35	34.74	75.62	0.00	0.0666	11.49	505.6	388.97	0.0570	412.4	7.423	13.96	7.71	1.80
	68.33	34.76	75.62	0.00	0.0668	11.50	505.8	389.15	0.0569	410.5	7.389	13.90	7.64	1.80
	69.34	34.76	75.62	0.00	0.0667	11.49	505.5	388.95	0.0568	409.1	7.363	13.85	7.59	1.80
	70.33	34.74	75.59	0.00	0.0667	11.49	505.4	388.96	0.0568	409.2	7.366	13.86	7.59	1.80
	71.34	34.76	75.67	0.00	0.0667	11.50	506.0	389.03	0.0567	407.6	7.336	13.79	7.54	1.81
	72.42	34.76	75.59	0.00	0.0666	11.49	505.5	389.09	0.0569	410.6	7.391	13.90	7.64	1.81
	73.34	34.77	75.62	0.00	0.0666	11.48	504.9	388.49	0.0581	419.6	7.552	14.20	7.96	1.81
	74.33	34.78	75.65	-0.00	0.0665	11.47	504.7	388.19	0.0584	426.2	7.671	14.42	8.19	1.81
	75.33	34.78	75.62	0.00	0.0665	11.47	504.6	388.24	0.0579	421.6	7.588	14.27	8.03	1.81
	76.33	34.75	75.62	0.00	0.0667	11.49	505.4	388.81	0.0583	423.5	7.622	14.33	8.10	1.81
	77.33	34.78	75.65	0.00	0.0665	11.47	504.9	388.35	0.0583	422.8	7.611	14.31	8.08	1.81
	78.33	34.79	75.59	0.00	0.0666	11.48	505.2	388.84	0.0583	424.6	7.642	14.38	8.14	1.81
	79.34	34.80	75.62	-0.00	0.0665	11.46	504.4	388.14	0.0587	428.6	7.716	14.51	8.28	1.81
	80.34	34.79	75.62	-0.00	0.0666	11.46	504.3	388.08	0.0589	430.0	7.740	14.56	8.33	1.81
	81.40	34.79	75.62	0.00	0.0665	11.47	504.9	388.48	0.0586	427.7	7.698	14.48	8.25	1.81
	82.34	34.79	75.62	0.00	0.0666	11.47	504.6	388.30	0.0588	429.1	7.724	14.53	8.29	1.81
	83.35	34.82	75.62	0.00	0.0666	11.47	504.9	388.52	0.0589	430.0	7.740	14.56	8.33	1.81
	84.33	34.76	75.62	0.00	0.0666	11.50	506.0	389.27	0.0580	423.6	7.625	14.34	8.10	1.81
	85.35	34.78	75.59	0.00	0.0665	11.47	504.6	388.39	0.0590	433.6	7.804	14.68	8.45	1.81
	86.35	34.83	75.62	-0.00	0.0665	11.47	504.8	388.45	0.0595	436.2	7.852	14.77	8.54	1.81
	87.34	34.81	75.65	0.00	0.0664	11.46	504.2	387.85	0.0599	443.1	7.976	15.00	8.77	1.81
	88.33	34.77	75.65	0.00	0.0666	11.47	504.8	388.25	0.0597	439.8	7.916	14.88	8.66	1.81
	89.36	34.82	75.62	-0.00	0.0666	11.48	505.0	388.62	0.0595	436.8	7.862	14.79	8.56	1.81
	90.42	34.80	75.62	0.00	0.0666	11.49	505.5	388.96	0.0603	445.8	8.025	15.10	8.86	1.81
	91.35	34.85	75.65	-0.00	0.0665	11.49	505.4	388.81	0.0606	448.4	8.071	15.18	8.95	1.81
	92.34	34.80	75.62	0.00	0.0665	11.47	504.5	388.21	0.0605	446.3	8.033	15.11	8.87	1.81
	93.35	34.79	75.62	-0.00	0.0666	11.49	505.6	389.02	0.0608	450.5	8.109	15.25	9.01	1.81
	94.43	34.82	75.62	-0.00	0.0664	11.45	503.9	387.77	0.0612	452.0	8.136	15.30	9.06	1.81
	95.35	34.82	75.62	-0.00	0.0666	11.47	504.7	388.37	0.0609	452.8	8.151	15.33	9.09	1.81
	96.36	34.82	75.62	-0.00	0.0665	11.47	504.7	388.37	0.0601	442.3	7.961	14.98	8.74	1.81
	97.34	34.82	75.62	0.00	0.0664	11.45	503.9	387.80	0.0615	457.4	8.232	15.49	9.24	1.81
	98.34	34.82	75.62	0.00	0.0663	11.42	502.5	386.72	0.0612	455.7	8.202	15.43	9.18	1.81
	99.34	34.82	75.62	-0.00	0.0665	11.44	503.3	387.30	0.0617	458.4	8.250	15.52	9.27	1.81
	100.36	34.84	75.67	0.00	0.0664	11.43	503.1	386.88	0.0618	461.4	8.305	15.61	9.37	1.81
	101.34	34.82	75.59	-0.00	0.0666	11.46	504.1	388.03	0.0612	454.9	8.189	15.41	9.16	1.81
	102.35	34.82	75.57	0.00	0.0663	11.41	502.0	386.58	0.0619	460.5	8.290	15.60	9.34	1.81
	103.41	34.79	75.62	-0.00	0.0663	11.40	501.8	386.09	0.0624	465.4	8.378	15.76	9.50	1.81
	104.33	34.82	75.62	0.00	0.0663	11.42	502.5	386.70	0.0618	456.9	8.225	15.47	9.23	1.81
	105.35	34.84	75.65	-0.00	0.0664	11.42	502.6	386.70	0.0623	464.9	8.368	15.74	9.48	1.81
	106.35	34.84	75.62	-0.00	0.0666	11.46	504.5	388.22	0.0622	463.4	8.342	15.69	9.44	1.81
	107.33	34.80	75.62	0.00	0.0665	11.49	505.4	388.87	0.0623	468.3	8.429	15.85	9.59	1.81
	108.41	34.87	75.62	0.00	0.0665	11.46	504.4	388.19	0.0621	464.0	8.352	15.71	9.46	1.82
	109.33	34.87	75.62	0.00	0.0663	11.41	502.2	386.49	0.0624	465.7	8.383	15.77	9.51	1.81
	110.34	34.87	75.62	0.00	0.0662	11.41	502.1	386.42	0.0628	470.5	8.469	15.93	9.66	1.81
	111.34	34.89	75.62	-0.00	0.0663	11.41	502.2	386.57	0.0630	471.3	8.484	15.96	9.69	1.81
	112.35	34.87	75.62	-0.00	0.0664	11.43	503.1	387.25	0.0623	467.0	8.407	15.82	9.55	1.81
	113.33	34.84	75.62	0.00	0.0663	11.41	502.1	386.42	0.0617	459.7	8.275	15.57	9.32	1.82
	114.36	34.91	75.62	-0.00	0.0664	11.43	503.0	387.16	0.0624	467.7	8.419	15.84	9.58	1.81
	115.33	34.86	75.67	0.00	0.0664	11.42	502.4	386.41	0.0626	468.2	8.428	15.85	9.59	1.81
	116.36	34.87	75.62	-0.00	0.0664	11.43	502.9	387.09	0.0625	468.2	8.428	15.86	9.59	1.81
	117.33	34.87	75.65	0.00	0.0664	11.43	503.0	386.98	0.0623	466.2	8.391	15.78	9.53	1.81
	118.34	34.87	75.62	0.00	0.0665	11.44	503.5	387.51	0.0621	464.6	8.363	15.73	9.47	1.81
	119.34	34.87	75.62	0.00	0.0664	11.44	503.5	387.49	0.0623	463.2	8.337	15.69	9.43	1.82
	120.34	34.89	75.62	0.00	0.0662	11.38	500.8	385.45	0.0630	472.6	8.507	16.01	9.73	1.82
	121.34	34.89	75.62	0.00	0.0662	11.39	501.0	385.66	0.0633	477.7	8.598	16.18	9.89	1.82
	122.34	34.86	75.62	0.00	0.0662	11.40	501.5	385.99	0.0633	477.1	8.587	16.16	9.87	1.82
	123.33	34.91	75.62	0.00	0.0660	11.36	499.8	384.70	0.0638	481.8	8.672	16.32	10.02	1.81
	124.33	34.93	75.62	0.00	0.0660	11.34	499.1	384.20	0.0638	481.6	8.668	16.31	10.01	1.82
	125.33	34.91	75.59	0.00	0.0661	11.36	499.6	384.74	0.0639	485.8	8.745	16.46	10.14	1.82
