Jul 22 2015 at 14:31:42
Frequency: 1Hz.
CO2
Zero:  Value:0.954578  Date:18 Mar 2005	 at 07:22:33	
Span:  Value:0.999099  Date:18 Mar 2005	 at 07:25:09	
H2O
Zero:  Value:0.712542  Date:18 Mar 2005	 at 07:52:31	
Span:  Value:0.993508  Date:18 Mar 2005	 at 11:44:01	
	Relative Time	Temperature	Pressure	Aux Input	CO2 Absorptance	CO2 mmol/m3	CO2 mg/m3	CO2 umol/mol	H2O Absorptance	H2O mmol/m3	H2O g/m3	H2O mmol/mol	H2O(°C)	Cooler Voltage
	0.19	32.50	75.62	0.00	0.0677	11.73	515.9	394.03	0.0548	391.3	7.043	13.15	6.83	1.65
	1.19	32.51	75.62	-0.00	0.0677	11.73	516.0	394.10	0.0549	392.1	7.058	13.18	6.86	1.65
	2.18	32.46	75.65	0.00	0.0676	11.72	515.6	393.56	0.0550	392.1	7.057	13.17	6.86	1.65
	3.17	32.46	75.62	0.00	0.0677	11.72	515.6	393.75	0.0550	391.8	7.053	13.17	6.85	1.65
	4.20	32.47	75.62	-0.00	0.0676	11.73	516.0	394.06	0.0552	393.7	7.087	13.23	6.92	1.65
	5.18	32.43	75.65	-0.00	0.0676	11.71	515.0	393.14	0.0553	393.6	7.084	13.22	6.92	1.65
	6.18	32.44	75.62	0.00	0.0676	11.71	515.2	393.37	0.0551	394.5	7.101	13.25	6.95	1.65
	7.18	32.49	75.62	0.00	0.0675	11.70	515.0	393.28	0.0553	395.3	7.115	13.28	6.98	1.65
	8.19	32.48	75.62	-0.00	0.0675	11.69	514.3	392.80	0.0554	396.1	7.131	13.31	7.01	1.65
	9.19	32.51	75.62	-0.00	0.0675	11.68	513.8	392.40	0.0558	398.9	7.181	13.41	7.12	1.65
	10.19	32.53	75.65	-0.00	0.0675	11.68	513.9	392.35	0.0561	402.6	7.248	13.53	7.25	1.65
	11.19	32.52	75.62	-0.00	0.0675	11.69	514.5	392.96	0.0564	405.4	7.297	13.62	7.35	1.65
	12.17	32.56	75.62	0.00	0.0676	11.69	514.5	393.05	0.0571	409.5	7.371	13.76	7.50	1.65
	13.18	32.55	75.65	0.00	0.0676	11.70	514.7	393.01	0.0575	416.5	7.496	13.99	7.75	1.65
	14.16	32.55	75.62	0.00	0.0677	11.73	516.0	394.16	0.0585	426.0	7.668	14.32	8.08	1.65
	15.19	32.57	75.62	-0.00	0.0677	11.74	516.7	394.72	0.0580	423.1	7.616	14.22	7.98	1.65
	16.16	32.55	75.59	0.00	0.0680	11.77	518.1	395.89	0.0591	433.8	7.808	14.58	8.35	1.65
	17.19	32.59	75.62	-0.00	0.0676	11.72	515.6	393.87	0.0596	439.3	7.907	14.77	8.53	1.65
	18.25	32.55	75.62	0.00	0.0675	11.68	513.8	392.51	0.0583	425.9	7.666	14.31	8.08	1.66
	19.19	32.54	75.67	-0.00	0.0679	11.76	517.4	394.96	0.0591	439.3	7.908	14.75	8.53	1.65
	20.19	32.54	75.62	0.00	0.0677	11.76	517.3	395.12	0.0609	447.5	8.056	15.04	8.81	1.65
	21.18	32.55	75.59	-0.00	0.0676	11.73	516.0	394.31	0.0599	445.2	8.014	14.97	8.73	1.65
	22.18	32.51	75.59	0.00	0.0677	11.70	515.0	393.46	0.0596	442.1	7.958	14.86	8.63	1.65
	23.18	32.57	75.65	-0.00	0.0675	11.70	514.6	392.98	0.0600	438.4	7.891	14.73	8.50	1.65
	24.20	32.56	75.62	-0.00	0.0673	11.66	513.2	392.00	0.0582	425.5	7.658	14.30	8.06	1.66
	25.18	32.57	75.62	-0.00	0.0672	11.65	512.5	391.54	0.0575	417.5	7.516	14.03	7.79	1.66
	26.19	32.59	75.62	0.00	0.0674	11.68	513.9	392.63	0.0581	424.4	7.640	14.27	8.03	1.65
	27.16	32.61	75.65	0.00	0.0673	11.63	511.9	390.96	0.0580	420.5	7.569	14.13	7.89	1.66
	28.17	32.60	75.62	0.00	0.0673	11.65	512.7	391.70	0.0586	423.1	7.616	14.22	7.98	1.66
	29.19	32.60	75.62	0.00	0.0674	11.66	513.0	391.93	0.0591	431.0	7.757	14.49	8.25	1.66
	30.17	32.64	75.62	0.00	0.0674	11.66	513.2	392.11	0.0593	434.8	7.826	14.62	8.38	1.66
	31.18	32.62	75.62	0.00	0.0672	11.64	512.3	391.40	0.0592	432.8	7.790	14.55	8.32	1.66
	32.18	32.65	75.62	-0.00	0.0673	11.64	512.1	391.32	0.0603	444.2	7.995	14.93	8.70	1.66
	33.24	32.65	75.62	0.00	0.0672	11.63	511.9	391.15	0.0603	446.3	8.034	15.01	8.77	1.66
	34.18	32.65	75.62	0.00	0.0673	11.65	512.8	391.84	0.0619	461.9	8.314	15.53	9.28	1.66
	35.18	32.67	75.62	-0.00	0.0674	11.67	513.6	392.47	0.0614	458.0	8.245	15.40	9.16	1.66
	36.18	32.65	75.62	0.00	0.0675	11.68	514.1	392.80	0.0621	461.2	8.301	15.50	9.26	1.66
	37.17	32.67	75.62	0.00	0.0675	11.68	514.0	392.75	0.0618	460.2	8.284	15.47	9.23	1.66
	38.19	32.69	75.62	-0.00	0.0674	11.67	513.7	392.55	0.0625	467.0	8.406	15.70	9.45	1.66
	39.17	32.71	75.59	0.00	0.0676	11.69	514.3	393.19	0.0621	459.1	8.263	15.44	9.19	1.66
	40.26	32.78	75.65	-0.00	0.0675	11.67	513.6	392.49	0.0615	457.4	8.233	15.38	9.14	1.66
	41.20	32.76	75.59	0.00	0.0674	11.68	514.1	393.10	0.0616	459.2	8.266	15.45	9.20	1.66
	42.18	32.78	75.59	0.00	0.0673	11.66	513.2	392.47	0.0616	458.2	8.248	15.42	9.17	1.66
	43.18	32.76	75.62	-0.00	0.0675	11.67	513.5	392.50	0.0619	461.1	8.300	15.51	9.26	1.66
	44.18	32.76	75.59	0.00	0.0674	11.66	513.0	392.28	0.0612	455.2	8.194	15.31	9.07	1.66
	45.18	32.78	75.62	-0.00	0.0674	11.65	512.8	391.96	0.0622	463.3	8.340	15.58	9.33	1.66
	46.18	32.75	75.59	0.00	0.0673	11.65	512.8	392.08	0.0626	462.4	8.323	15.56	9.30	1.66
	47.17	32.77	75.62	0.00	0.0671	11.59	510.1	389.94	0.0632	479.9	8.639	16.14	9.86	1.66
	48.17	32.75	75.65	0.00	0.0674	11.64	512.3	391.42	0.0626	467.9	8.422	15.73	9.48	1.66
	49.17	32.73	75.62	0.00	0.0672	11.62	511.2	390.75	0.0626	464.9	8.368	15.63	9.38	1.66
	50.19	32.78	75.59	-0.00	0.0672	11.61	510.9	390.66	0.0617	459.9	8.278	15.47	9.22	1.66
	51.17	32.77	75.62	0.00	0.0670	11.60	510.6	390.31	0.0638	473.9	8.530	15.94	9.67	1.66
	52.26	32.78	75.65	-0.00	0.0670	11.58	509.6	389.42	0.0649	496.5	8.937	16.69	10.36	1.66
	53.18	32.76	75.65	-0.00	0.0672	11.60	510.3	389.90	0.0649	492.2	8.860	16.55	10.23	1.66
	54.19	32.78	75.67	-0.00	0.0670	11.56	508.9	388.72	0.0649	495.4	8.918	16.65	10.33	1.66
	55.24	32.80	75.57	0.00	0.0670	11.58	509.7	389.94	0.0642	490.1	8.822	16.50	10.17	1.66
	56.17	32.77	75.62	0.00	0.0672	11.61	510.7	390.42	0.0620	461.0	8.297	15.50	9.26	1.66
	57.25	32.81	75.59	0.00	0.0672	11.61	510.8	390.64	0.0639	473.7	8.527	15.94	9.66	1.66
	58.17	32.82	75.65	0.00	0.0672	11.60	510.5	390.13	0.0641	484.1	8.714	16.28	9.99	1.67
	59.20	32.82	75.62	0.00	0.0671	11.60	510.5	390.31	0.0639	482.6	8.688	16.24	9.94	1.67
	60.20	32.84	75.62	-0.00	0.0671	11.58	509.5	389.59	0.0645	488.0	8.784	16.42	10.11	1.67
	61.17	32.82	75.59	0.00	0.0671	11.57	509.3	389.49	0.0648	488.3	8.790	16.43	10.12	1.66
	62.17	32.78	75.62	0.00	0.0670	11.57	509.0	389.09	0.0645	488.8	8.799	16.44	10.13	1.67
	63.20	32.87	75.62	-0.00	0.0670	11.58	509.7	389.74	0.0649	496.1	8.930	16.69	10.36	1.66
	64.18	32.86	75.67	0.00	0.0671	11.57	509.2	389.06	0.0650	493.7	8.886	16.60	10.28	1.67
	65.18	32.90	75.65	-0.00	0.0670	11.56	508.7	388.91	0.0653	500.0	9.000	16.82	10.48	1.67
	66.19	32.90	75.59	-0.00	0.0670	11.56	508.6	389.10	0.0654	500.8	9.014	16.86	10.50	1.67
	67.19	32.88	75.62	0.00	0.0669	11.55	508.3	388.68	0.0652	502.3	9.041	16.90	10.54	1.67
	68.17	32.85	75.65	0.00	0.0670	11.57	509.2	389.19	0.0653	497.3	8.952	16.73	10.39	1.67
	69.17	32.84	75.62	0.00	0.0670	11.56	508.8	388.99	0.0655	502.5	9.046	16.91	10.55	1.67
	70.18	32.82	75.62	0.00	0.0670	11.55	508.1	388.44	0.0659	502.8	9.050	16.91	10.55	1.67
	71.18	32.85	75.65	-0.00	0.0669	11.56	508.8	388.87	0.0656	504.7	9.085	16.97	10.61	1.67
	72.20	32.81	75.62	0.00	0.0669	11.57	509.1	389.24	0.0657	500.0	9.001	16.82	10.47	1.67
	73.24	32.84	75.62	0.00	0.0669	11.55	508.2	388.54	0.0656	502.5	9.046	16.91	10.55	1.67
	74.18	32.81	75.62	0.00	0.0667	11.53	507.3	387.85	0.0656	500.6	9.011	16.84	10.49	1.67
	75.18	32.79	75.62	-0.00	0.0669	11.59	509.7	389.68	0.0655	496.7	8.940	16.71	10.37	1.67
	76.17	32.78	75.62	0.00	0.0670	11.57	508.9	389.05	0.0664	509.9	9.178	17.15	10.76	1.67
	77.17	32.75	75.62	0.00	0.0668	11.54	507.6	387.98	0.0669	510.7	9.193	17.18	10.79	1.67
	78.17	32.73	75.62	0.00	0.0668	11.53	507.1	387.62	0.0672	519.5	9.352	17.47	11.04	1.67
	79.19	32.71	75.62	-0.00	0.0669	11.51	506.6	387.19	0.0667	517.5	9.315	17.40	10.98	1.67
	80.18	32.69	75.62	-0.00	0.0669	11.51	506.5	387.10	0.0668	514.2	9.256	17.29	10.89	1.67
	81.18	32.66	75.62	0.00	0.0668	11.54	507.6	387.88	0.0669	517.2	9.309	17.39	10.97	1.67
	82.18	32.67	75.67	-0.00	0.0669	11.55	508.0	387.92	0.0672	518.4	9.332	17.42	11.01	1.68
	83.19	32.65	75.65	-0.00	0.0667	11.53	507.3	387.53	0.0668	512.6	9.227	17.23	10.84	1.67
	84.18	32.62	75.65	0.00	0.0667	11.52	507.0	387.26	0.0672	516.6	9.299	17.36	10.95	1.67
	85.18	32.67	75.62	0.00	0.0667	11.53	507.2	387.62	0.0681	528.7	9.517	17.78	11.30	1.67
	86.17	32.73	75.62	0.00	0.0665	11.47	504.8	385.80	0.0696	538.6	9.694	18.11	11.59	1.67
	87.17	32.70	75.59	0.00	0.0667	11.50	506.2	386.96	0.0691	539.8	9.716	18.16	11.62	1.68
	88.25	32.75	75.65	0.00	0.0665	11.48	505.1	385.95	0.0673	522.7	9.408	17.57	11.13	1.68
	89.19	32.69	75.62	-0.00	0.0666	11.49	505.8	386.51	0.0677	525.7	9.462	17.68	11.22	1.67
	90.20	32.71	75.62	-0.00	0.0667	11.51	506.3	386.96	0.0671	518.6	9.335	17.44	11.01	1.67
	91.20	32.73	75.65	-0.00	0.0667	11.49	505.4	386.19	0.0683	532.9	9.593	17.92	11.43	1.67
	92.18	32.69	75.59	0.00	0.0666	11.49	505.6	386.55	0.0682	526.9	9.485	17.72	11.25	1.67
	93.16	32.71	75.62	0.00	0.0668	11.50	506.2	386.87	0.0685	530.7	9.553	17.85	11.36	1.68
	94.16	32.71	75.62	0.00	0.0667	11.52	506.8	387.36	0.0690	539.6	9.714	18.15	11.61	1.68
	95.16	32.69	75.62	0.00	0.0666	11.50	505.9	386.60	0.0683	533.0	9.594	17.92	11.43	1.68
	96.24	32.63	75.62	0.00	0.0667	11.51	506.4	386.89	0.0681	536.2	9.651	18.03	11.51	1.68
	97.19	32.69	75.62	0.00	0.0668	11.50	505.9	386.60	0.0684	526.8	9.483	17.71	11.25	1.68
	98.17	32.71	75.62	0.00	0.0666	11.51	506.3	386.97	0.0686	533.7	9.606	17.95	11.45	1.68
	99.17	32.71	75.62	0.00	0.0666	11.50	505.9	386.64	0.0695	544.0	9.792	18.29	11.74	1.68
	100.17	32.71	75.62	0.00	0.0667	11.47	504.9	385.87	0.0694	546.6	9.839	18.38	11.81	1.68
	101.18	32.73	75.59	-0.00	0.0665	11.49	505.7	386.69	0.0702	551.8	9.932	18.56	11.95	1.68
	102.17	32.73	75.59	0.00	0.0664	11.47	504.7	385.86	0.0704	555.4	9.997	18.68	12.05	1.68
	103.16	32.71	75.59	0.00	0.0666	11.48	505.3	386.29	0.0700	546.8	9.842	18.39	11.81	1.68
	104.16	32.71	75.62	0.00	0.0666	11.47	504.8	385.76	0.0708	559.4	10.070	18.81	12.16	1.68
	105.19	32.76	75.62	-0.00	0.0666	11.46	504.0	385.28	0.0707	558.4	10.050	18.78	12.13	1.68
	106.19	32.76	75.59	-0.00	0.0665	11.46	504.4	385.66	0.0694	539.0	9.703	18.14	11.60	1.68
	107.16	32.74	75.59	0.00	0.0664	11.45	503.6	385.09	0.0692	541.7	9.751	18.22	11.67	1.68
	108.19	32.78	75.59	-0.00	0.0663	11.44	503.5	385.05	0.0709	560.7	10.092	18.86	12.20	1.68
	109.17	32.75	75.62	-0.00	0.0666	11.47	504.7	385.79	0.0706	558.5	10.054	18.78	12.14	1.68
	110.17	32.78	75.62	0.00	0.0665	11.45	503.9	385.19	0.0699	552.1	9.937	18.57	11.96	1.68
	111.17	32.75	75.62	-0.00	0.0664	11.44	503.6	384.90	0.0710	557.4	10.033	18.75	12.11	1.68
	112.18	32.76	75.62	0.00	0.0666	11.50	505.8	386.63	0.0700	551.7	9.931	18.56	11.95	1.68
	113.22	32.72	75.62	0.00	0.0664	11.44	503.5	384.82	0.0705	555.4	9.997	18.68	12.05	1.68
	114.16	32.77	75.59	0.00	0.0665	11.48	504.9	386.11	0.0709	558.5	10.053	18.79	12.14	1.68
	115.16	32.82	75.59	0.00	0.0664	11.45	503.8	385.30	0.0710	563.5	10.143	18.96	12.28	1.68
	116.17	32.81	75.65	-0.00	0.0665	11.44	503.4	384.70	0.0709	567.0	10.206	19.07	12.37	1.68
	117.17	32.82	75.65	-0.00	0.0665	11.44	503.2	384.62	0.0707	560.2	10.084	18.84	12.19	1.68
	118.17	32.81	75.62	-0.00	0.0665	11.45	503.9	385.24	0.0712	562.0	10.116	18.90	12.24	1.68
	119.17	32.78	75.62	0.00	0.0664	11.44	503.2	384.65	0.0714	564.7	10.164	18.99	12.31	1.68
	120.17	32.81	75.59	0.00	0.0665	11.45	503.6	385.13	0.0710	562.9	10.133	18.94	12.26	1.68
	121.20	32.83	75.62	-0.00	0.0665	11.45	503.8	385.16	0.0700	552.6	9.946	18.59	11.98	1.69
	122.16	32.90	75.59	0.00	0.0666	11.48	505.2	386.52	0.0696	543.9	9.789	18.31	11.74	1.69
