Jul 22 2015 at 11:37:42
Frequency: 1.00Hz.
CO2
Zero:  Value:0.95  Date:18 Mar 2005	 at 07:22:33	
Span:  Value:1.00  Date:18 Mar 2005	 at 07:25:09	
H2O
Zero:  Value:0.71  Date:18 Mar 2005	 at 07:52:31	
Span:  Value:0.99  Date:18 Mar 2005	 at 11:44:01	
	Relative Time	Temperature	Pressure	Aux Input	CO2 Absorptance	CO2 mmol/m3	CO2 mg/m3	CO2 umol/mol	H2O Absorptance	H2O mmol/m3	H2O g/m3	H2O mmol/mol	H2O(°C)	Cooler Voltage
	0.44	32.10	73.48	0.00	0.0663	11.49	505.4	396.67	0.0585	430.4	7.748	14.87	8.21	1.74
	1.36	32.10	73.51	0.00	0.0663	11.49	505.7	396.82	0.0584	428.5	7.712	14.79	8.14	1.74
	2.36	32.07	73.48	0.00	0.0662	11.49	505.8	396.95	0.0583	431.1	7.761	14.89	8.23	1.74
	3.37	32.10	73.51	0.00	0.0661	11.47	504.7	396.02	0.0582	429.1	7.723	14.81	8.16	1.74
	4.37	32.10	73.53	0.00	0.0659	11.44	503.5	394.93	0.0582	428.3	7.709	14.78	8.14	1.74
	5.38	32.12	73.48	0.00	0.0662	11.49	505.7	396.93	0.0586	433.7	7.807	14.98	8.32	1.74
	6.38	32.12	73.51	-0.00	0.0662	11.49	505.8	396.88	0.0587	434.3	7.817	14.99	8.34	1.74
	7.44	32.12	73.51	0.00	0.0661	11.48	505.1	396.32	0.0588	434.9	7.829	15.02	8.36	1.74
	8.36	32.12	73.51	0.00	0.0658	11.42	502.4	394.20	0.0589	436.8	7.862	15.08	8.43	1.74
	9.36	32.09	73.48	0.00	0.0658	11.40	501.4	393.57	0.0602	448.8	8.078	15.50	8.83	1.74
	10.36	32.14	73.51	0.00	0.0657	11.35	499.4	391.88	0.0597	444.6	8.002	15.35	8.69	1.74
	11.36	32.11	73.51	0.00	0.0656	11.37	500.3	392.54	0.0599	447.5	8.055	15.45	8.78	1.74
	12.45	32.11	73.48	0.00	0.0658	11.40	501.6	393.69	0.0602	448.1	8.065	15.47	8.80	1.74
	13.37	32.14	73.48	0.00	0.0660	11.43	503.0	394.88	0.0605	450.7	8.113	15.57	8.89	1.74
	14.37	32.12	73.51	-0.00	0.0661	11.46	504.2	395.63	0.0605	452.9	8.151	15.64	8.96	1.74
	15.37	32.11	73.51	0.00	0.0659	11.43	503.0	394.72	0.0607	455.1	8.192	15.71	9.04	1.74
	16.36	32.13	73.48	-0.00	0.0660	11.45	503.6	395.33	0.0609	457.7	8.239	15.81	9.12	1.74
	17.35	32.14	73.51	0.00	0.0658	11.39	501.3	393.43	0.0606	454.0	8.172	15.68	9.00	1.74
	18.36	32.13	73.48	0.00	0.0659	11.41	502.2	394.19	0.0607	454.4	8.180	15.70	9.01	1.73
	19.36	32.15	73.51	0.00	0.0657	11.38	500.9	393.07	0.0605	454.3	8.177	15.69	9.01	1.74
	20.37	32.13	73.51	0.00	0.0658	11.41	502.2	394.05	0.0615	464.0	8.353	16.02	9.32	1.74
	21.37	32.13	73.48	0.00	0.0658	11.39	501.2	393.41	0.0612	460.8	8.295	15.92	9.22	1.74
	22.39	32.13	73.51	-0.00	0.0656	11.35	499.5	392.01	0.0610	455.7	8.203	15.74	9.06	1.74
	23.37	32.13	73.51	0.00	0.0657	11.37	500.4	392.67	0.0613	460.6	8.291	15.90	9.21	1.74
	24.37	32.17	73.48	0.00	0.0657	11.37	500.4	392.85	0.0613	460.7	8.292	15.91	9.22	1.73
	25.37	32.18	73.54	0.00	0.0656	11.37	500.2	392.43	0.0611	460.5	8.290	15.90	9.21	1.74
	26.38	32.18	73.53	-0.00	0.0657	11.37	500.5	392.67	0.0618	466.2	8.392	16.09	9.40	1.74
	27.36	32.18	73.48	0.00	0.0656	11.36	500.0	392.54	0.0622	468.2	8.427	16.17	9.46	1.74
	28.38	32.16	73.51	-0.00	0.0657	11.35	499.6	392.07	0.0626	472.5	8.505	16.32	9.59	1.74
	29.36	32.15	73.51	0.00	0.0656	11.34	499.1	391.69	0.0626	473.0	8.513	16.33	9.61	1.74
	30.36	32.18	73.51	-0.00	0.0655	11.32	497.9	390.78	0.0629	476.6	8.579	16.46	9.72	1.74
	31.37	32.21	73.51	-0.00	0.0655	11.32	498.1	391.00	0.0634	480.2	8.643	16.58	9.84	1.74
	32.45	32.18	73.51	-0.00	0.0654	11.31	497.7	390.61	0.0639	487.2	8.769	16.82	10.05	1.74
	33.35	32.15	73.51	0.00	0.0655	11.34	498.9	391.55	0.0634	484.7	8.725	16.74	9.97	1.74
	34.35	32.23	73.51	0.00	0.0655	11.33	498.5	391.30	0.0640	490.0	8.820	16.92	10.14	1.74
	35.38	32.20	73.51	-0.00	0.0655	11.33	498.3	391.15	0.0641	491.3	8.844	16.97	10.18	1.74
	36.36	32.20	73.48	0.00	0.0656	11.35	499.6	392.27	0.0646	496.7	8.941	17.16	10.34	1.74
	37.38	32.20	73.48	-0.00	0.0655	11.34	499.0	391.80	0.0647	498.1	8.966	17.21	10.38	1.74
	38.36	32.17	73.51	0.00	0.0655	11.34	498.8	391.49	0.0650	501.3	9.024	17.31	10.48	1.74
	39.38	32.20	73.51	-0.00	0.0653	11.30	497.4	390.42	0.0648	499.4	8.988	17.25	10.42	1.74
	40.37	32.20	73.48	-0.00	0.0654	11.30	497.0	390.26	0.0653	503.1	9.055	17.38	10.53	1.74
	41.37	32.18	73.51	0.00	0.0653	11.29	496.7	389.87	0.0655	506.7	9.120	17.50	10.64	1.74
	42.37	32.17	73.51	-0.00	0.0653	11.29	496.9	390.01	0.0655	508.3	9.150	17.55	10.69	1.74
	43.37	32.20	73.51	0.00	0.0652	11.28	496.4	389.62	0.0654	506.7	9.121	17.50	10.64	1.74
	44.43	32.20	73.54	0.00	0.0653	11.28	496.5	389.53	0.0657	507.8	9.141	17.53	10.67	1.74
	45.38	32.22	73.48	-0.00	0.0652	11.28	496.3	389.72	0.0655	511.2	9.202	17.66	10.77	1.74
	46.36	32.22	73.51	0.00	0.0652	11.26	495.4	388.85	0.0647	501.0	9.017	17.30	10.47	1.74
	47.35	32.22	73.51	0.00	0.0652	11.28	496.1	389.45	0.0659	511.1	9.200	17.65	10.77	1.74
	48.36	32.20	73.51	0.00	0.0652	11.26	495.6	389.01	0.0647	491.7	8.850	16.98	10.19	1.74
	49.37	32.17	73.51	-0.00	0.0653	11.26	495.5	388.90	0.0665	512.3	9.221	17.69	10.80	1.74
	50.36	32.20	73.59	0.00	0.0652	11.26	495.4	388.39	0.0659	512.5	9.224	17.68	10.81	1.74
	51.36	32.20	73.48	0.00	0.0651	11.26	495.4	388.96	0.0662	515.1	9.272	17.79	10.89	1.74
	52.35	32.22	73.48	0.00	0.0652	11.25	495.1	388.78	0.0659	514.3	9.257	17.77	10.86	1.74
	53.37	32.24	73.48	0.00	0.0652	11.26	495.3	388.93	0.0665	518.3	9.330	17.91	10.98	1.74
	54.35	32.22	73.43	0.00	0.0651	11.24	494.8	388.78	0.0651	508.5	9.152	17.58	10.69	1.74
	55.38	32.20	73.54	0.00	0.0651	11.25	495.1	388.45	0.0657	508.9	9.160	17.57	10.71	1.74
	56.38	32.22	73.51	-0.00	0.0649	11.21	493.4	387.30	0.0655	504.5	9.082	17.43	10.58	1.74
	57.36	32.24	73.51	0.00	0.0650	11.24	494.4	388.14	0.0661	510.4	9.186	17.63	10.75	1.74
	58.36	32.24	73.48	0.00	0.0649	11.20	492.8	387.00	0.0665	512.7	9.228	17.71	10.82	1.74
	59.37	32.22	73.51	0.00	0.0648	11.19	492.4	386.48	0.0667	518.2	9.328	17.90	10.98	1.74
	60.44	32.24	73.46	0.00	0.0649	11.20	492.9	387.17	0.0665	520.6	9.371	17.99	11.05	1.74
	61.37	32.20	73.48	-0.00	0.0648	11.19	492.6	386.73	0.0667	522.0	9.395	18.03	11.09	1.74
	62.35	32.24	73.51	-0.00	0.0650	11.21	493.1	387.08	0.0659	510.3	9.185	17.63	10.75	1.74
	63.37	32.25	73.46	0.00	0.0649	11.20	493.0	387.25	0.0667	521.7	9.391	18.03	11.08	1.74
	64.37	32.20	73.51	0.00	0.0648	11.19	492.3	386.42	0.0679	535.2	9.633	18.48	11.46	1.74
	65.38	32.24	73.48	-0.00	0.0648	11.18	492.0	386.39	0.0679	534.8	9.626	18.48	11.45	1.74
	66.36	32.19	73.48	0.00	0.0648	11.17	491.6	386.01	0.0674	529.0	9.521	18.27	11.29	1.74
	67.42	32.26	73.48	0.00	0.0647	11.16	491.1	385.68	0.0677	528.4	9.511	18.26	11.27	1.74
	68.36	32.22	73.51	0.00	0.0647	11.16	490.8	385.29	0.0672	528.2	9.508	18.24	11.27	1.74
	69.36	32.20	73.51	0.00	0.0648	11.16	490.9	385.27	0.0668	521.7	9.391	18.02	11.08	1.74
	70.36	32.24	73.51	0.00	0.0647	11.17	491.3	385.68	0.0678	524.9	9.448	18.13	11.17	1.74
	71.37	32.24	73.53	0.00	0.0646	11.13	489.8	384.38	0.0691	547.3	9.852	18.90	11.81	1.74
	72.37	32.22	73.51	0.00	0.0646	11.13	489.9	384.55	0.0682	536.0	9.649	18.51	11.49	1.74
	73.38	32.24	73.51	-0.00	0.0646	11.14	490.1	384.73	0.0679	533.9	9.611	18.44	11.43	1.74
	74.37	32.26	73.48	-0.00	0.0647	11.15	490.8	385.43	0.0660	513.3	9.240	17.74	10.84	1.74
	75.36	32.24	73.48	0.00	0.0647	11.17	491.4	385.89	0.0669	511.7	9.211	17.68	10.79	1.74
	76.36	32.28	73.51	-0.00	0.0646	11.13	489.9	384.65	0.0681	531.4	9.566	18.36	11.36	1.74
	77.34	32.26	73.48	0.00	0.0645	11.11	488.7	383.76	0.0675	534.7	9.624	18.48	11.45	1.74
	78.39	32.26	73.48	0.00	0.0645	11.12	489.1	384.13	0.0671	528.7	9.517	18.27	11.28	1.74
	79.37	32.26	73.51	-0.00	0.0646	11.14	490.1	384.75	0.0663	516.3	9.294	17.83	10.93	1.74
	80.39	32.24	73.48	-0.00	0.0646	11.15	490.5	385.19	0.0665	515.2	9.273	17.80	10.89	1.74
	81.36	32.22	73.51	0.00	0.0646	11.12	489.4	384.16	0.0677	532.7	9.589	18.40	11.39	1.74
	82.38	32.24	73.51	-0.00	0.0646	11.12	489.2	384.04	0.0671	526.1	9.470	18.17	11.21	1.74
	83.37	32.23	73.46	0.00	0.0646	11.12	489.5	384.48	0.0670	521.5	9.387	18.02	11.07	1.74
	84.35	32.24	73.48	0.00	0.0645	11.09	487.9	383.15	0.0683	541.6	9.748	18.71	11.64	1.74
	85.36	32.26	73.48	0.00	0.0645	11.11	489.0	384.01	0.0672	526.1	9.469	18.18	11.21	1.74
	86.35	32.25	73.51	0.00	0.0646	11.12	489.2	383.99	0.0669	522.2	9.400	18.04	11.10	1.74
	87.36	32.28	73.48	0.00	0.0645	11.11	488.7	383.80	0.0675	526.5	9.476	18.19	11.22	1.74
	88.36	32.28	73.51	-0.00	0.0645	11.10	488.6	383.59	0.0684	532.9	9.593	18.41	11.40	1.74
	89.36	32.24	73.48	0.00	0.0644	11.08	487.7	382.94	0.0684	546.7	9.840	18.89	11.79	1.74
	90.36	32.28	73.48	-0.00	0.0645	11.11	488.7	383.79	0.0682	537.8	9.680	18.58	11.54	1.74
	91.37	32.25	73.48	0.00	0.0644	11.09	487.8	383.10	0.0679	534.3	9.618	18.46	11.44	1.74
	92.37	32.26	73.51	-0.00	0.0643	11.06	486.6	382.04	0.0684	542.5	9.766	18.74	11.67	1.74
	93.37	32.30	73.51	0.00	0.0642	11.05	486.2	381.78	0.0700	551.2	9.922	19.04	11.92	1.74
	94.38	32.30	73.48	-0.00	0.0643	11.05	486.3	381.98	0.0693	549.1	9.884	18.98	11.86	1.74
	95.36	32.30	73.48	-0.00	0.0643	11.07	486.9	382.44	0.0695	547.6	9.856	18.92	11.81	1.74
	96.36	32.30	73.51	0.00	0.0643	11.06	486.8	382.23	0.0689	545.3	9.815	18.84	11.75	1.74
	97.36	32.30	73.48	-0.00	0.0642	11.05	486.4	382.04	0.0689	544.5	9.801	18.82	11.73	1.74
	98.36	32.30	73.48	0.00	0.0644	11.08	487.4	382.86	0.0685	540.8	9.734	18.69	11.63	1.74
	99.36	32.26	73.51	0.00	0.0643	11.07	486.9	382.25	0.0681	535.7	9.643	18.51	11.48	1.74
	100.36	32.30	73.46	0.00	0.0643	11.08	487.4	382.95	0.0686	539.5	9.711	18.65	11.59	1.74
	101.37	32.30	73.54	0.00	0.0643	11.06	486.9	382.12	0.0693	547.1	9.848	18.89	11.80	1.74
	102.35	32.30	73.51	0.00	0.0643	11.05	486.1	381.64	0.0705	560.4	10.087	19.36	12.17	1.74
	103.37	32.30	73.51	0.00	0.0642	11.05	486.2	381.73	0.0702	558.7	10.056	19.30	12.12	1.74
	104.36	32.28	73.51	0.00	0.0642	11.04	485.7	381.28	0.0697	555.5	9.999	19.19	12.03	1.74
	105.38	32.30	73.48	-0.00	0.0642	11.03	485.3	381.16	0.0701	559.8	10.076	19.35	12.15	1.74
	106.36	32.32	73.53	0.00	0.0641	11.03	485.1	380.80	0.0702	560.2	10.083	19.35	12.16	1.74
	107.38	32.32	73.51	-0.00	0.0641	11.01	484.6	380.50	0.0701	560.5	10.088	19.36	12.17	1.74
	108.36	32.30	73.51	0.00	0.0640	11.00	484.2	380.18	0.0699	557.0	10.027	19.24	12.08	1.74
	109.34	32.32	73.46	0.00	0.0641	11.01	484.6	380.76	0.0699	556.5	10.017	19.24	12.06	1.74
	110.36	32.32	73.51	0.00	0.0640	11.01	484.5	380.44	0.0699	555.5	10.000	19.19	12.03	1.74
	111.35	32.30	73.51	0.00	0.0641	11.02	484.8	380.62	0.0701	560.1	10.082	19.35	12.16	1.74
	112.37	32.35	73.46	0.00	0.0641	11.01	484.4	380.62	0.0697	555.4	9.996	19.20	12.03	1.74
	113.37	32.34	73.48	0.00	0.0640	10.99	483.6	379.85	0.0699	556.1	10.011	19.22	12.05	1.74
	114.38	32.30	73.48	-0.00	0.0640	10.99	483.8	379.95	0.0705	562.7	10.129	19.45	12.23	1.74
	115.46	32.30	73.48	-0.00	0.0640	11.01	484.4	380.42	0.0709	566.7	10.201	19.58	12.34	1.74
	116.38	32.34	73.51	-0.00	0.0640	10.99	483.7	379.83	0.0703	561.2	10.102	19.39	12.19	1.74
	117.36	32.32	73.51	0.00	0.0639	10.99	483.5	379.69	0.0705	561.5	10.107	19.40	12.20	1.74
	118.37	32.32	73.51	-0.00	0.0639	10.98	482.9	379.21	0.0703	562.4	10.123	19.43	12.22	1.74
	119.36	32.32	73.51	0.00	0.0639	10.97	482.9	379.14	0.0710	567.7	10.218	19.61	12.36	1.74
