Jul 23 2015 at 10:25:11
Frequency: 1.00Hz.
CO2
Zero:  Value:0.95  Date:18 Mar 2005	 at 07:22:33	
Span:  Value:1.00  Date:18 Mar 2005	 at 07:25:09	
H2O
Zero:  Value:0.71  Date:18 Mar 2005	 at 07:52:31	
Span:  Value:0.99  Date:18 Mar 2005	 at 11:44:01	
	Relative Time	Temperature	Pressure	Aux Input	CO2 Absorptance	CO2 mmol/m3	CO2 mg/m3	CO2 umol/mol	H2O Absorptance	H2O mmol/m3	H2O g/m3	H2O mmol/mol	H2O(°C)	Cooler Voltage
	0.30	30.77	73.74	-0.00	0.0659	11.31	497.8	387.69	0.0784	667.3	12.011	22.86	14.77	1.68
	1.37	30.80	73.75	-0.00	0.0660	11.51	506.4	394.42	0.0781	642.5	11.566	22.02	14.19	1.67
	2.29	30.75	73.77	-0.00	0.0660	11.41	502.2	390.94	0.0782	657.6	11.836	22.52	14.54	1.67
	3.29	30.73	73.74	0.00	0.0662	11.47	504.7	392.97	0.0773	645.5	11.619	22.12	14.25	1.67
	4.27	30.75	73.74	0.00	0.0665	11.56	508.8	396.23	0.0754	617.5	11.115	21.16	13.57	1.68
	5.29	30.78	73.72	0.00	0.0666	11.56	508.6	396.21	0.0753	619.4	11.149	21.23	13.62	1.68
	6.29	30.80	73.74	-0.00	0.0665	11.55	508.0	395.62	0.0750	617.8	11.120	21.17	13.58	1.68
	7.30	30.77	73.77	-0.00	0.0666	11.56	508.8	396.05	0.0744	607.5	10.936	20.81	13.32	1.67
	8.28	30.77	73.77	0.00	0.0665	11.54	508.0	395.44	0.0750	614.9	11.069	21.06	13.51	1.67
	9.28	30.77	73.72	0.00	0.0667	11.58	509.7	397.08	0.0744	607.6	10.937	20.83	13.32	1.67
	10.30	30.79	73.77	-0.00	0.0673	11.69	514.4	400.46	0.0718	583.2	10.498	19.98	12.70	1.68
	11.29	30.79	73.74	-0.00	0.0675	11.77	518.0	403.43	0.0707	565.4	10.178	19.38	12.23	1.68
	12.29	30.78	73.77	0.00	0.0675	11.78	518.2	403.44	0.0707	564.1	10.155	19.32	12.19	1.67
	13.31	30.81	73.77	-0.00	0.0673	11.74	516.5	402.15	0.0715	572.6	10.308	19.62	12.42	1.67
	14.30	30.81	73.74	-0.00	0.0675	11.78	518.1	403.55	0.0706	565.3	10.175	19.37	12.22	1.67
	15.30	30.81	73.74	0.00	0.0675	11.77	517.8	403.31	0.0706	564.1	10.155	19.33	12.19	1.67
	16.30	30.79	73.75	-0.00	0.0673	11.73	516.1	401.89	0.0709	566.9	10.205	19.43	12.27	1.67
	17.32	30.81	73.80	0.00	0.0672	11.71	515.5	401.17	0.0710	567.3	10.212	19.43	12.28	1.67
	18.28	30.81	73.75	0.00	0.0673	11.73	516.3	402.10	0.0709	567.0	10.206	19.43	12.27	1.67
	19.31	30.84	73.74	-0.00	0.0674	11.72	515.7	401.72	0.0707	565.9	10.186	19.39	12.24	1.67
	20.28	30.82	73.74	0.00	0.0674	11.72	515.9	401.80	0.0707	562.8	10.130	19.29	12.16	1.67
	21.31	30.81	73.74	-0.00	0.0674	11.73	515.9	401.80	0.0707	563.6	10.146	19.32	12.18	1.67
	22.29	30.84	73.75	0.00	0.0672	11.71	515.0	401.16	0.0702	559.2	10.066	19.16	12.06	1.67
	23.31	30.81	73.77	0.00	0.0673	11.72	515.7	401.51	0.0705	561.5	10.107	19.23	12.12	1.67
	24.30	30.81	73.75	-0.00	0.0675	11.75	516.9	402.56	0.0710	567.6	10.218	19.45	12.29	1.67
	25.30	30.82	73.77	-0.00	0.0674	11.75	517.2	402.68	0.0711	569.1	10.245	19.50	12.33	1.67
	26.30	30.84	73.77	0.00	0.0675	11.75	516.9	402.50	0.0714	571.4	10.285	19.58	12.39	1.67
	27.29	30.81	73.74	0.00	0.0675	11.76	517.6	403.12	0.0713	572.8	10.310	19.63	12.42	1.67
	28.28	30.78	73.72	0.00	0.0674	11.76	517.2	402.95	0.0713	571.9	10.294	19.60	12.40	1.67
	29.30	30.83	73.77	0.00	0.0675	11.76	517.4	402.85	0.0712	571.9	10.293	19.59	12.40	1.67
	30.30	30.86	73.74	-0.00	0.0674	11.75	517.1	402.81	0.0710	569.8	10.257	19.53	12.35	1.67
	31.29	30.81	73.72	-0.00	0.0674	11.74	516.6	402.49	0.0706	564.8	10.166	19.36	12.21	1.67
	32.29	30.86	73.77	0.00	0.0674	11.73	516.2	401.99	0.0704	560.3	10.086	19.20	12.09	1.67
	33.31	30.86	73.72	-0.00	0.0672	11.70	514.9	401.25	0.0709	564.9	10.168	19.37	12.22	1.67
	34.35	30.88	73.80	0.00	0.0672	11.70	514.7	400.66	0.0711	569.4	10.249	19.50	12.34	1.67
	35.29	30.87	73.75	0.00	0.0673	11.71	515.0	401.19	0.0710	568.2	10.228	19.48	12.31	1.67
	36.29	30.86	73.75	0.00	0.0671	11.70	514.6	400.88	0.0713	573.2	10.318	19.65	12.44	1.67
	37.28	30.85	73.72	0.00	0.0671	11.67	513.5	400.12	0.0714	570.3	10.266	19.55	12.36	1.67
	38.28	30.88	73.77	0.00	0.0672	11.70	514.7	400.78	0.0714	572.8	10.311	19.63	12.43	1.68
	39.30	30.88	73.72	0.00	0.0671	11.68	513.8	400.42	0.0717	575.1	10.352	19.72	12.49	1.67
	40.28	30.83	73.75	0.00	0.0670	11.65	512.8	399.39	0.0719	578.6	10.416	19.83	12.58	1.67
	41.29	30.87	73.77	-0.00	0.0670	11.66	512.9	399.39	0.0718	577.9	10.402	19.80	12.56	1.67
	42.31	30.85	73.74	-0.00	0.0671	11.68	513.8	400.21	0.0718	579.2	10.426	19.85	12.60	1.67
	43.31	30.85	73.77	-0.00	0.0672	11.70	514.8	400.88	0.0720	578.4	10.410	19.82	12.57	1.67
	44.30	30.85	73.74	-0.00	0.0672	11.70	514.7	400.96	0.0720	579.8	10.436	19.87	12.61	1.68
	45.30	30.87	73.74	-0.00	0.0671	11.67	513.6	400.12	0.0722	582.1	10.478	19.95	12.67	1.68
	46.30	30.89	73.77	0.00	0.0671	11.68	514.0	400.27	0.0723	582.9	10.493	19.97	12.70	1.68
	47.30	30.87	73.77	0.00	0.0669	11.65	512.8	399.30	0.0723	583.9	10.510	20.01	12.72	1.67
	48.28	30.87	73.72	0.00	0.0669	11.62	511.4	398.55	0.0725	586.1	10.550	20.10	12.78	1.67
	49.30	30.86	73.72	0.00	0.0668	11.62	511.2	398.33	0.0723	583.7	10.507	20.01	12.72	1.67
	50.30	30.94	73.75	-0.00	0.0670	11.64	512.3	399.19	0.0727	587.1	10.569	20.13	12.81	1.67
	51.29	30.88	73.77	0.00	0.0668	11.62	511.1	398.02	0.0726	587.8	10.580	20.14	12.82	1.68
	52.29	30.88	73.72	0.00	0.0668	11.61	510.7	398.00	0.0728	589.1	10.603	20.20	12.86	1.67
	53.29	30.90	73.74	0.00	0.0668	11.62	511.4	398.41	0.0729	590.0	10.619	20.22	12.88	1.67
	54.29	30.87	73.74	0.00	0.0670	11.64	512.0	398.84	0.0733	594.5	10.701	20.38	12.99	1.67
	55.29	30.90	73.72	0.00	0.0669	11.63	511.6	398.73	0.0733	595.6	10.721	20.42	13.03	1.67
	56.30	30.88	73.74	0.00	0.0669	11.63	511.9	398.81	0.0732	593.5	10.684	20.34	12.97	1.68
	57.30	30.92	73.77	0.00	0.0670	11.64	512.3	398.98	0.0733	595.1	10.712	20.39	13.01	1.68
	58.30	30.89	73.74	0.00	0.0669	11.64	512.3	399.06	0.0734	597.1	10.748	20.47	13.06	1.67
	59.30	30.89	73.74	-0.00	0.0669	11.64	512.0	398.88	0.0734	597.2	10.749	20.47	13.06	1.67
	60.28	30.89	73.74	0.00	0.0670	11.65	512.5	399.29	0.0736	597.8	10.760	20.49	13.08	1.67
	61.29	30.91	73.77	0.00	0.0669	11.64	512.4	399.05	0.0734	597.0	10.746	20.46	13.06	1.67
	62.28	30.91	73.77	0.00	0.0668	11.62	511.4	398.28	0.0736	600.2	10.804	20.57	13.14	1.67
	63.29	30.91	73.77	0.00	0.0669	11.62	511.2	398.15	0.0734	597.3	10.751	20.47	13.07	1.68
	64.29	30.92	73.74	0.00	0.0670	11.66	513.2	399.84	0.0739	602.3	10.842	20.65	13.20	1.67
	65.29	30.93	73.77	0.00	0.0670	11.66	512.8	399.44	0.0740	603.1	10.856	20.67	13.22	1.67
	66.28	30.93	73.74	-0.00	0.0669	11.64	512.1	398.97	0.0740	603.0	10.853	20.67	13.21	1.67
	67.30	30.91	73.74	-0.00	0.0669	11.64	512.0	398.87	0.0741	603.7	10.867	20.70	13.23	1.67
	68.28	30.94	73.77	0.00	0.0669	11.64	512.0	398.79	0.0743	605.8	10.905	20.76	13.29	1.68
	69.28	30.96	73.77	0.00	0.0668	11.60	510.4	397.60	0.0743	608.9	10.961	20.87	13.37	1.68
	70.29	30.93	73.74	-0.00	0.0669	11.62	511.4	398.44	0.0743	606.7	10.920	20.80	13.31	1.67
	71.29	30.93	73.77	-0.00	0.0670	11.64	512.2	398.94	0.0745	608.5	10.953	20.85	13.36	1.67
	72.29	30.91	73.75	-0.00	0.0669	11.62	511.4	398.43	0.0746	610.3	10.986	20.92	13.40	1.67
	73.27	30.91	73.72	0.00	0.0669	11.63	511.8	398.88	0.0745	609.3	10.967	20.89	13.37	1.67
	74.29	30.95	73.74	0.00	0.0669	11.62	511.2	398.33	0.0745	609.6	10.973	20.90	13.38	1.68
	75.30	30.95	73.72	-0.00	0.0668	11.60	510.5	397.88	0.0746	611.7	11.011	20.98	13.44	1.68
	76.30	30.95	73.74	-0.00	0.0667	11.58	509.5	396.98	0.0743	606.6	10.919	20.80	13.31	1.68
	77.30	30.93	73.75	0.00	0.0666	11.58	509.3	396.84	0.0744	608.4	10.952	20.86	13.35	1.67
	78.28	30.93	73.72	0.00	0.0667	11.58	509.6	397.19	0.0742	606.6	10.919	20.80	13.31	1.68
	79.31	30.92	73.77	-0.00	0.0667	11.59	510.2	397.35	0.0747	611.1	11.000	20.94	13.42	1.67
	80.29	30.94	73.77	-0.00	0.0669	11.62	511.3	398.25	0.0748	612.9	11.032	21.00	13.47	1.68
	81.29	30.95	73.74	0.00	0.0668	11.60	510.4	397.73	0.0749	615.3	11.075	21.10	13.53	1.68
	82.29	30.94	73.72	0.00	0.0668	11.61	510.7	398.03	0.0749	614.2	11.056	21.06	13.50	1.67
	83.31	30.97	73.77	0.00	0.0668	11.61	510.8	397.88	0.0746	612.3	11.021	20.99	13.45	1.67
	84.29	30.96	73.69	0.00	0.0668	11.62	511.3	398.67	0.0749	613.5	11.042	21.05	13.48	1.67
	85.29	30.93	73.74	0.00	0.0667	11.59	510.2	397.49	0.0750	615.7	11.082	21.11	13.53	1.68
	86.28	30.98	73.75	0.00	0.0666	11.58	509.5	397.01	0.0752	617.2	11.110	21.16	13.58	1.68
	87.28	30.97	73.74	0.00	0.0667	11.56	508.6	396.36	0.0752	620.3	11.166	21.27	13.65	1.67
	88.28	30.99	73.77	0.00	0.0668	11.59	509.9	397.20	0.0756	622.3	11.202	21.33	13.70	1.67
	89.30	31.00	73.77	0.00	0.0668	11.59	509.9	397.25	0.0760	626.7	11.280	21.48	13.81	1.67
	90.29	31.00	73.69	-0.00	0.0670	11.66	512.8	399.93	0.0758	626.1	11.269	21.48	13.80	1.67
	91.29	30.96	73.74	-0.00	0.0670	11.66	513.1	399.84	0.0758	625.6	11.262	21.45	13.78	1.68
	92.29	31.02	73.74	-0.00	0.0667	11.59	510.2	397.60	0.0766	633.0	11.394	21.71	13.97	1.68
	93.37	31.03	73.75	-0.00	0.0667	11.58	509.6	397.14	0.0766	634.4	11.420	21.76	14.00	1.68
	94.27	31.01	73.75	0.00	0.0667	11.58	509.6	397.11	0.0765	635.7	11.442	21.80	14.03	1.67
	95.30	31.03	73.74	-0.00	0.0667	11.60	510.2	397.67	0.0763	630.7	11.353	21.63	13.91	1.68
	96.27	31.03	73.77	0.00	0.0664	11.52	506.8	394.90	0.0770	638.2	11.488	21.88	14.09	1.68
	97.28	31.05	73.74	-0.00	0.0665	11.55	508.0	395.98	0.0772	642.0	11.556	22.02	14.19	1.68
	98.28	31.02	73.75	0.00	0.0665	11.56	508.6	396.34	0.0765	635.1	11.431	21.78	14.02	1.68
	99.30	31.06	73.72	0.00	0.0666	11.56	508.8	396.73	0.0769	639.6	11.512	21.94	14.13	1.67
	100.37	31.08	73.77	-0.00	0.0666	11.56	508.5	396.26	0.0772	642.9	11.571	22.04	14.21	1.68
	101.29	31.02	73.77	0.00	0.0666	11.56	508.6	396.25	0.0771	641.1	11.539	21.98	14.16	1.67
	102.29	31.05	73.74	0.00	0.0670	11.63	511.8	398.90	0.0770	638.5	11.492	21.90	14.10	1.67
	103.30	31.02	73.74	0.00	0.0668	11.62	511.1	398.34	0.0770	641.1	11.539	21.98	14.16	1.68
	104.30	31.01	73.75	-0.00	0.0669	11.64	512.0	398.99	0.0768	638.8	11.499	21.91	14.11	1.68
	105.36	31.01	73.77	0.00	0.0668	11.61	511.1	398.15	0.0769	639.4	11.509	21.92	14.12	1.68
	106.28	30.98	73.74	0.00	0.0671	11.64	512.0	398.97	0.0769	638.3	11.490	21.89	14.09	1.67
	107.30	30.99	73.75	0.00	0.0669	11.65	512.7	399.54	0.0770	639.5	11.510	21.93	14.12	1.68
	108.28	31.03	73.77	0.00	0.0670	11.66	513.1	399.78	0.0769	639.3	11.508	21.92	14.12	1.68
	109.29	31.01	73.75	0.00	0.0671	11.67	513.6	400.26	0.0771	641.4	11.545	21.99	14.17	1.68
	110.28	31.01	73.74	0.00	0.0671	11.68	513.9	400.51	0.0772	642.4	11.563	22.03	14.19	1.68
	111.31	31.06	73.77	-0.00	0.0671	11.68	513.9	400.39	0.0775	646.1	11.630	22.15	14.28	1.68
	112.29	31.03	73.74	-0.00	0.0671	11.68	513.8	400.43	0.0775	646.2	11.631	22.16	14.28	1.68
	113.30	31.03	73.80	-0.00	0.0673	11.72	515.6	401.56	0.0776	646.9	11.643	22.17	14.30	1.68
	114.29	31.03	73.74	0.00	0.0672	11.70	515.0	401.39	0.0775	647.4	11.653	22.20	14.31	1.68
	115.28	31.04	73.72	0.00	0.0673	11.71	515.4	401.87	0.0776	648.1	11.666	22.23	14.33	1.68
	116.30	31.05	73.77	-0.00	0.0672	11.71	515.2	401.42	0.0776	646.9	11.645	22.18	14.30	1.68
	117.30	31.03	73.74	-0.00	0.0673	11.70	514.9	401.32	0.0775	646.9	11.644	22.18	14.30	1.68
	118.28	31.05	73.77	0.00	0.0672	11.70	514.7	401.07	0.0776	647.1	11.648	22.19	14.31	1.68
	119.28	31.00	73.77	0.00	0.0672	11.70	515.0	401.18	0.0777	648.6	11.674	22.23	14.34	1.68
	120.28	31.08	73.80	0.00	0.0671	11.69	514.3	400.63	0.0777	649.1	11.684	22.25	14.36	1.68
	121.29	31.06	73.74	0.00	0.0671	11.68	513.8	400.46	0.0776	649.1	11.684	22.26	14.36	1.68
