Jul 23 2015 at 11:41:25
Frequency: 1.00Hz.
CO2
Zero:  Value:0.95  Date:18 Mar 2005	 at 07:22:33	
Span:  Value:1.00  Date:18 Mar 2005	 at 07:25:09	
H2O
Zero:  Value:0.71  Date:18 Mar 2005	 at 07:52:31	
Span:  Value:0.99  Date:18 Mar 2005	 at 11:44:01	
	Relative Time	Temperature	Pressure	Aux Input	CO2 Absorptance	CO2 mmol/m3	CO2 mg/m3	CO2 umol/mol	H2O Absorptance	H2O mmol/m3	H2O g/m3	H2O mmol/mol	H2O(°C)	Cooler Voltage
	0.67	32.75	73.77	-0.00	0.0681	11.91	524.0	410.59	0.0550	395.0	7.110	13.62	6.98	1.73
	1.65	32.80	73.80	-0.00	0.0681	11.89	523.1	409.82	0.0551	396.5	7.138	13.67	7.04	1.73
	2.67	32.82	73.80	-0.00	0.0677	11.82	520.3	407.61	0.0557	403.3	7.260	13.90	7.29	1.73
	3.63	32.77	73.77	0.00	0.0678	11.85	521.2	408.43	0.0554	399.4	7.190	13.77	7.15	1.73
	4.66	32.81	73.77	-0.00	0.0677	11.82	520.0	407.56	0.0554	400.1	7.202	13.80	7.17	1.73
	5.66	32.80	73.74	-0.00	0.0677	11.81	519.5	407.28	0.0557	401.0	7.217	13.83	7.20	1.73
	6.66	32.79	73.75	-0.00	0.0676	11.80	519.0	406.87	0.0557	404.1	7.273	13.94	7.32	1.73
	7.64	32.82	73.77	0.00	0.0676	11.78	518.4	406.29	0.0557	403.0	7.254	13.90	7.28	1.73
	8.64	32.83	73.72	0.00	0.0675	11.77	518.1	406.33	0.0563	407.1	7.327	14.05	7.43	1.72
	9.64	32.83	73.77	0.00	0.0675	11.77	517.9	405.92	0.0568	412.7	7.429	14.23	7.63	1.73
	10.67	32.88	73.77	-0.00	0.0675	11.76	517.6	405.76	0.0570	416.2	7.491	14.35	7.75	1.73
	11.64	32.85	73.77	0.00	0.0675	11.76	517.6	405.66	0.0571	417.1	7.507	14.38	7.78	1.73
	12.65	32.85	73.75	0.00	0.0674	11.76	517.4	405.64	0.0569	415.8	7.484	14.34	7.74	1.73
	13.63	32.90	73.77	0.00	0.0674	11.74	516.7	405.04	0.0568	415.7	7.483	14.34	7.74	1.73
	14.65	32.87	73.74	0.00	0.0674	11.74	516.6	405.08	0.0576	417.8	7.520	14.41	7.81	1.72
	15.66	32.90	73.74	-0.00	0.0674	11.73	516.3	404.84	0.0572	418.2	7.527	14.43	7.82	1.73
	16.64	32.89	73.77	0.00	0.0674	11.73	516.1	404.55	0.0583	429.3	7.728	14.81	8.21	1.73
	17.66	32.92	73.74	-0.00	0.0673	11.72	515.9	404.56	0.0583	428.7	7.716	14.79	8.19	1.73
	18.64	32.92	73.74	0.00	0.0672	11.72	515.5	404.28	0.0577	426.4	7.675	14.71	8.11	1.72
	19.66	32.93	73.77	-0.00	0.0673	11.70	515.0	403.76	0.0612	442.2	7.960	15.25	8.65	1.72
	20.65	32.94	73.77	-0.00	0.0672	11.70	515.0	403.76	0.0595	441.5	7.947	15.23	8.63	1.73
	21.65	32.91	73.77	0.00	0.0672	11.71	515.2	403.92	0.0596	442.0	7.957	15.25	8.64	1.73
	22.65	32.91	73.77	-0.00	0.0672	11.70	515.0	403.72	0.0597	443.1	7.976	15.29	8.68	1.73
	23.63	32.96	73.72	0.00	0.0672	11.69	514.4	403.58	0.0598	444.7	8.004	15.35	8.73	1.73
	24.65	32.93	73.74	0.00	0.0672	11.70	514.6	403.59	0.0599	445.2	8.013	15.36	8.75	1.72
	25.65	32.98	73.77	0.00	0.0672	11.69	514.2	403.21	0.0602	448.3	8.070	15.47	8.85	1.73
	26.64	32.96	73.77	0.00	0.0670	11.66	513.1	402.34	0.0617	460.3	8.285	15.88	9.24	1.73
	27.64	32.98	73.75	0.00	0.0669	11.65	512.5	402.02	0.0620	467.8	8.420	16.14	9.48	1.73
	28.66	32.91	73.75	0.00	0.0669	11.65	512.6	402.01	0.0637	470.9	8.476	16.25	9.58	1.73
	29.67	32.95	73.80	-0.00	0.0669	11.64	512.0	401.33	0.0639	481.6	8.669	16.61	9.92	1.73
	30.64	32.98	73.74	0.00	0.0668	11.61	511.0	400.85	0.0640	489.9	8.818	16.91	10.17	1.73
	31.65	33.00	73.77	-0.00	0.0668	11.61	510.9	400.60	0.0644	490.5	8.829	16.93	10.19	1.73
	32.67	32.98	73.80	-0.00	0.0668	11.61	510.7	400.33	0.0642	494.9	8.908	17.07	10.32	1.73
	33.65	32.98	73.77	0.00	0.0669	11.63	511.9	401.36	0.0632	482.4	8.683	16.64	9.94	1.73
	34.65	32.98	73.77	0.00	0.0669	11.63	511.8	401.32	0.0632	480.8	8.654	16.59	9.89	1.73
	35.65	32.99	73.77	0.00	0.0669	11.63	511.6	401.17	0.0634	483.1	8.696	16.67	9.97	1.73
	36.65	32.97	73.75	0.00	0.0669	11.63	511.8	401.39	0.0635	482.5	8.685	16.65	9.95	1.73
	37.66	32.98	73.74	-0.00	0.0669	11.63	511.6	401.30	0.0637	484.2	8.716	16.71	10.00	1.73
	38.64	32.98	73.80	0.00	0.0669	11.63	511.7	401.05	0.0636	485.7	8.743	16.75	10.04	1.73
	39.66	33.00	73.80	0.00	0.0669	11.63	511.7	401.16	0.0638	488.5	8.793	16.85	10.13	1.73
	40.64	32.98	73.74	0.00	0.0668	11.63	511.6	401.26	0.0639	489.1	8.804	16.88	10.15	1.73
	41.73	33.00	73.74	-0.00	0.0669	11.62	511.5	401.24	0.0639	488.5	8.792	16.86	10.13	1.73
	42.65	33.00	73.77	-0.00	0.0669	11.63	511.6	401.16	0.0642	490.1	8.823	16.91	10.18	1.72
	43.65	32.98	73.74	0.00	0.0668	11.62	511.3	401.09	0.0642	490.5	8.829	16.93	10.19	1.73
	44.65	32.98	73.77	0.00	0.0668	11.62	511.2	400.83	0.0639	489.2	8.805	16.88	10.15	1.73
	45.72	33.00	73.74	-0.00	0.0668	11.60	510.6	400.50	0.0644	493.4	8.881	17.03	10.28	1.73
	46.66	32.96	73.74	0.00	0.0669	11.62	511.2	400.94	0.0643	493.2	8.878	17.02	10.27	1.73
	47.64	32.98	73.77	0.00	0.0669	11.62	511.4	401.01	0.0644	493.2	8.878	17.02	10.27	1.73
	48.64	33.02	73.74	0.00	0.0669	11.61	511.0	400.91	0.0648	496.5	8.937	17.14	10.38	1.73
	49.64	33.02	73.77	0.00	0.0668	11.61	511.0	400.73	0.0648	496.4	8.935	17.13	10.37	1.73
	50.64	33.00	73.77	0.00	0.0668	11.61	510.9	400.60	0.0649	499.0	8.982	17.22	10.45	1.73
	51.65	33.02	73.74	-0.00	0.0668	11.61	511.0	400.85	0.0649	498.8	8.979	17.22	10.45	1.73
	52.63	33.02	73.77	0.00	0.0668	11.61	510.9	400.63	0.0648	497.3	8.951	17.16	10.40	1.73
	53.63	33.04	73.77	0.00	0.0669	11.61	510.9	400.71	0.0650	500.2	9.003	17.26	10.49	1.73
	54.65	32.98	73.77	-0.00	0.0668	11.61	511.0	400.70	0.0653	502.7	9.048	17.34	10.56	1.73
	55.65	32.99	73.77	-0.00	0.0668	11.61	510.8	400.57	0.0656	505.8	9.104	17.45	10.65	1.73
	56.66	33.02	73.77	-0.00	0.0668	11.61	511.0	400.71	0.0660	511.8	9.213	17.66	10.83	1.73
	57.63	33.02	73.77	0.00	0.0668	11.60	510.4	400.26	0.0657	508.1	9.145	17.53	10.72	1.73
	58.66	33.00	73.77	0.00	0.0667	11.59	510.0	399.92	0.0657	506.7	9.121	17.48	10.68	1.73
	59.66	33.00	73.80	-0.00	0.0668	11.60	510.5	400.14	0.0658	509.6	9.173	17.58	10.77	1.73
	60.67	33.00	73.75	-0.00	0.0668	11.60	510.4	400.37	0.0656	506.7	9.121	17.49	10.68	1.73
	61.64	33.02	73.77	0.00	0.0667	11.60	510.2	400.11	0.0657	508.0	9.144	17.53	10.72	1.73
	62.65	33.04	73.72	0.00	0.0667	11.60	510.2	400.42	0.0657	507.9	9.142	17.54	10.72	1.73
	63.66	33.01	73.77	-0.00	0.0667	11.60	510.4	400.29	0.0660	513.2	9.237	17.71	10.87	1.73
	64.66	33.04	73.77	-0.00	0.0667	11.60	510.4	400.26	0.0663	511.9	9.213	17.66	10.83	1.73
	65.66	33.04	73.77	-0.00	0.0668	11.60	510.3	400.23	0.0668	518.3	9.329	17.88	11.02	1.73
	66.64	33.01	73.77	-0.00	0.0668	11.59	509.9	399.89	0.0671	524.3	9.438	18.09	11.20	1.73
	67.66	33.01	73.80	-0.00	0.0666	11.57	509.1	399.07	0.0667	519.6	9.353	17.92	11.06	1.73
	68.66	33.04	73.74	-0.00	0.0667	11.57	509.2	399.48	0.0671	522.2	9.400	18.03	11.13	1.73
	69.65	33.00	73.74	-0.00	0.0667	11.58	509.6	399.78	0.0674	527.5	9.495	18.21	11.28	1.73
	70.65	33.02	73.80	-0.00	0.0667	11.58	509.5	399.38	0.0674	527.8	9.501	18.21	11.30	1.73
	71.64	33.01	73.74	0.00	0.0667	11.58	509.7	399.82	0.0671	523.2	9.417	18.06	11.16	1.73
	72.65	33.07	73.77	-0.00	0.0666	11.58	509.5	399.65	0.0684	533.6	9.605	18.41	11.46	1.73
	73.65	33.04	73.77	-0.00	0.0665	11.54	507.9	398.32	0.0691	546.4	9.834	18.85	11.82	1.73
	74.65	33.04	73.74	0.00	0.0666	11.57	509.1	399.41	0.0676	532.8	9.590	18.39	11.44	1.73
	75.64	33.01	73.75	-0.00	0.0666	11.58	509.4	399.62	0.0677	534.1	9.614	18.44	11.47	1.73
	76.71	33.04	73.74	0.00	0.0667	11.58	509.6	399.77	0.0682	535.0	9.629	18.47	11.50	1.73
	77.64	33.02	73.74	0.00	0.0667	11.59	509.8	399.90	0.0689	542.1	9.758	18.71	11.70	1.73
	78.64	33.07	73.80	-0.00	0.0667	11.58	509.7	399.68	0.0689	542.7	9.769	18.72	11.72	1.73
	79.65	33.07	73.75	-0.00	0.0666	11.58	509.7	399.91	0.0686	539.6	9.713	18.63	11.63	1.73
	80.64	33.07	73.74	0.00	0.0667	11.58	509.7	399.92	0.0699	553.7	9.967	19.12	12.02	1.73
	81.65	33.04	73.72	0.00	0.0667	11.59	509.8	400.07	0.0695	550.5	9.909	19.01	11.93	1.73
	82.65	33.07	73.77	-0.00	0.0667	11.59	509.7	399.81	0.0694	549.3	9.887	18.96	11.90	1.73
	83.66	33.05	73.77	-0.00	0.0667	11.58	509.6	399.67	0.0689	542.4	9.763	18.72	11.71	1.73
	84.66	33.06	73.80	-0.00	0.0667	11.58	509.4	399.42	0.0689	544.4	9.799	18.78	11.76	1.73
	85.64	33.04	73.77	0.00	0.0667	11.59	509.7	399.77	0.0691	546.2	9.832	18.85	11.81	1.73
	86.66	33.06	73.74	0.00	0.0667	11.59	509.8	399.95	0.0694	549.2	9.885	18.96	11.90	1.73
	87.67	33.04	73.77	-0.00	0.0666	11.57	508.9	399.15	0.0694	549.8	9.896	18.97	11.91	1.73
	88.64	33.04	73.77	0.00	0.0666	11.56	508.7	398.93	0.0695	551.4	9.925	19.03	11.96	1.73
	89.67	33.04	73.74	-0.00	0.0666	11.57	508.9	399.25	0.0698	554.1	9.974	19.13	12.03	1.73
	90.64	33.06	73.77	0.00	0.0666	11.57	509.1	399.27	0.0700	555.7	10.003	19.18	12.08	1.73
	91.67	33.07	73.77	-0.00	0.0667	11.57	509.3	399.43	0.0702	558.7	10.057	19.28	12.16	1.73
	92.65	33.04	73.77	0.00	0.0666	11.57	509.1	399.27	0.0704	561.2	10.102	19.37	12.23	1.73
	93.66	33.04	73.77	-0.00	0.0665	11.54	507.8	398.26	0.0694	551.6	9.928	19.03	11.96	1.73
	94.65	33.07	73.77	0.00	0.0666	11.56	508.6	398.92	0.0696	550.2	9.904	18.99	11.93	1.73
	95.64	33.04	73.77	-0.00	0.0667	11.57	509.2	399.35	0.0707	563.8	10.148	19.45	12.29	1.73
	96.66	33.04	73.72	-0.00	0.0666	11.58	509.3	399.73	0.0707	564.5	10.162	19.49	12.32	1.73
	97.66	33.04	73.77	0.00	0.0667	11.57	509.2	399.32	0.0707	562.5	10.125	19.41	12.26	1.73
	98.66	33.07	73.80	-0.00	0.0667	11.58	509.5	399.46	0.0707	564.3	10.157	19.47	12.31	1.73
	99.65	33.11	73.74	0.00	0.0667	11.58	509.6	399.92	0.0708	565.8	10.184	19.54	12.35	1.73
	100.64	33.06	73.77	0.00	0.0666	11.58	509.6	399.73	0.0708	566.8	10.202	19.56	12.38	1.73
	101.65	33.09	73.77	0.00	0.0667	11.58	509.3	399.50	0.0710	567.1	10.208	19.57	12.39	1.73
	102.66	33.09	73.77	-0.00	0.0667	11.57	509.2	399.42	0.0713	569.1	10.244	19.64	12.44	1.73
	103.65	33.10	73.74	0.00	0.0666	11.56	508.7	399.14	0.0722	582.5	10.485	20.11	12.80	1.73
	104.64	33.08	73.77	0.00	0.0666	11.56	508.6	398.96	0.0721	581.3	10.464	20.06	12.76	1.73
	105.64	33.09	73.77	0.00	0.0667	11.58	509.6	399.74	0.0718	577.8	10.400	19.94	12.67	1.73
	106.64	33.11	73.80	0.00	0.0667	11.59	510.0	399.92	0.0724	583.2	10.498	20.12	12.81	1.73
	107.64	33.10	73.82	-0.00	0.0667	11.59	510.0	399.81	0.0726	586.0	10.549	20.21	12.89	1.74
	108.64	33.07	73.77	0.00	0.0668	11.59	509.9	399.96	0.0731	592.6	10.668	20.45	13.06	1.74
	109.65	33.11	73.77	-0.00	0.0667	11.59	510.0	400.09	0.0734	596.0	10.729	20.57	13.15	1.73
	110.64	33.07	73.77	0.00	0.0667	11.58	509.7	399.76	0.0733	595.6	10.720	20.55	13.13	1.73
	111.65	33.11	73.74	-0.00	0.0667	11.59	510.1	400.30	0.0732	593.9	10.691	20.51	13.09	1.73
	112.63	33.10	73.77	0.00	0.0668	11.59	510.1	400.15	0.0735	597.0	10.746	20.61	13.17	1.73
	113.63	33.11	73.77	0.00	0.0666	11.58	509.7	399.84	0.0732	594.0	10.693	20.50	13.10	1.74
	114.64	33.07	73.77	0.00	0.0666	11.56	508.5	398.86	0.0739	603.9	10.871	20.84	13.35	1.74
	115.64	33.13	73.74	0.00	0.0666	11.56	508.7	399.24	0.0742	604.7	10.884	20.88	13.37	1.73
	116.66	33.10	73.74	0.00	0.0666	11.55	508.2	398.78	0.0749	612.2	11.019	21.14	13.56	1.73
	117.64	33.08	73.77	0.00	0.0665	11.54	507.7	398.24	0.0747	615.9	11.086	21.26	13.65	1.73
	118.65	33.10	73.74	0.00	0.0666	11.56	508.8	399.25	0.0741	607.1	10.928	20.96	13.43	1.73
	119.65	33.13	73.74	-0.00	0.0666	11.57	509.2	399.58	0.0740	603.8	10.868	20.85	13.35	1.74
	120.67	33.08	73.75	-0.00	0.0666	11.57	509.0	399.35	0.0744	609.3	10.967	21.03	13.48	1.74
	121.67	33.10	73.72	-0.00	0.0666	11.56	508.6	399.20	0.0743	607.5	10.936	20.98	13.44	1.73
	122.65	33.13	73.77	-0.00	0.0666	11.57	509.0	399.32	0.0745	608.6	10.954	21.01	13.47	1.73
	123.65	33.05	73.74	0.00	0.0666	11.57	509.0	399.31	0.0745	609.2	10.966	21.03	13.48	1.73
