Jul 23 2015 at 10:10:00
Frequency: 1.00Hz.
CO2
Zero:  Value:0.95  Date:18 Mar 2005	 at 07:22:33	
Span:  Value:1.00  Date:18 Mar 2005	 at 07:25:09	
H2O
Zero:  Value:0.71  Date:18 Mar 2005	 at 07:52:31	
Span:  Value:0.99  Date:18 Mar 2005	 at 11:44:01	
	Relative Time	Temperature	Pressure	Aux Input	CO2 Absorptance	CO2 mmol/m3	CO2 mg/m3	CO2 umol/mol	H2O Absorptance	H2O mmol/m3	H2O g/m3	H2O mmol/mol	H2O(°C)	Cooler Voltage
	0.03	28.91	73.74	0.00	0.0689	12.11	532.7	412.32	0.0670	513.2	9.238	17.48	10.67	1.68
	1.04	28.93	73.74	-0.00	0.0686	12.02	528.8	409.33	0.0710	568.7	10.236	19.37	12.22	1.68
	2.04	28.93	73.69	-0.00	0.0680	11.90	523.7	405.60	0.0772	627.8	11.300	21.39	13.73	1.68
	3.03	28.93	73.72	0.00	0.0680	11.84	520.9	403.29	0.0778	673.0	12.113	22.93	14.81	1.68
	4.04	28.93	73.74	-0.00	0.0676	11.86	522.1	404.08	0.0817	643.6	11.585	21.92	14.12	1.68
	5.02	28.93	73.74	0.00	0.0676	11.81	519.4	402.05	0.0827	703.8	12.668	23.97	15.50	1.68
	6.04	28.93	73.72	0.00	0.0676	11.77	518.0	401.05	0.0846	738.5	13.292	25.16	16.25	1.68
	7.04	28.92	73.72	-0.00	0.0677	11.81	519.6	402.32	0.0819	713.2	12.838	24.30	15.71	1.68
	8.03	28.91	73.74	0.00	0.0679	11.86	521.7	403.80	0.0778	656.4	11.815	22.35	14.42	1.68
	9.03	28.91	73.72	-0.00	0.0681	11.90	523.6	405.35	0.0742	611.3	11.004	20.83	13.32	1.68
	10.03	28.93	73.74	0.00	0.0681	11.90	523.7	405.39	0.0742	606.7	10.920	20.66	13.21	1.68
	11.09	28.88	73.75	0.00	0.0679	11.88	522.6	404.45	0.0765	628.4	11.311	21.40	13.74	1.68
	12.03	28.90	73.74	0.00	0.0680	11.87	522.5	404.36	0.0777	648.5	11.674	22.09	14.23	1.68
	13.03	28.93	73.75	-0.00	0.0683	11.93	524.7	406.16	0.0759	631.4	11.366	21.51	13.82	1.68
	14.02	28.91	73.74	0.00	0.0683	11.95	525.9	407.01	0.0749	618.3	11.129	21.06	13.50	1.68
	15.02	28.89	73.74	0.00	0.0683	11.95	525.6	406.77	0.0753	617.5	11.115	21.03	13.48	1.68
	16.02	28.91	73.72	0.00	0.0683	11.94	525.4	406.76	0.0761	629.1	11.324	21.43	13.76	1.68
	17.02	28.90	73.74	0.00	0.0684	11.96	526.1	407.19	0.0754	618.8	11.138	21.07	13.51	1.68
	18.03	28.90	73.72	0.00	0.0684	11.96	526.2	407.41	0.0748	616.0	11.087	20.98	13.44	1.68
	19.03	28.91	73.74	-0.00	0.0684	11.96	526.1	407.20	0.0740	605.3	10.895	20.61	13.17	1.68
	20.03	28.93	73.72	-0.00	0.0683	11.94	525.5	406.90	0.0744	608.7	10.956	20.74	13.26	1.68
	21.01	28.95	73.74	0.00	0.0682	11.92	524.5	406.00	0.0742	606.1	10.909	20.64	13.19	1.68
	22.11	28.93	73.72	-0.00	0.0682	11.93	524.9	406.44	0.0734	599.1	10.784	20.41	13.02	1.68
	23.09	28.93	73.72	0.00	0.0681	11.92	524.5	406.14	0.0733	594.4	10.700	20.25	12.90	1.68
	24.02	28.93	73.77	0.00	0.0681	11.88	522.8	404.48	0.0735	599.8	10.797	20.42	13.03	1.68
	25.02	28.90	73.74	-0.00	0.0682	11.92	524.4	405.87	0.0733	597.4	10.754	20.34	12.97	1.68
	26.05	28.93	73.74	-0.00	0.0683	11.94	525.3	406.62	0.0731	592.8	10.670	20.19	12.85	1.68
	27.04	28.93	73.69	-0.00	0.0683	11.94	525.5	407.05	0.0733	594.6	10.703	20.27	12.90	1.68
	28.05	28.91	73.72	-0.00	0.0682	11.92	524.6	406.14	0.0735	597.6	10.757	20.36	12.98	1.68
	29.03	28.91	73.72	0.00	0.0682	11.92	524.7	406.20	0.0735	596.8	10.743	20.33	12.96	1.68
	30.05	28.91	73.74	-0.00	0.0681	11.92	524.3	405.80	0.0737	600.0	10.801	20.43	13.04	1.68
	31.03	28.93	73.74	0.00	0.0680	11.89	523.3	405.04	0.0743	606.3	10.913	20.65	13.20	1.68
	32.03	28.93	73.72	0.00	0.0681	11.89	523.3	405.20	0.0746	611.8	11.012	20.84	13.34	1.68
	33.04	28.95	73.74	-0.00	0.0681	11.91	524.0	405.60	0.0746	610.6	10.991	20.80	13.31	1.68
	34.04	28.93	73.72	0.00	0.0682	11.91	524.2	405.89	0.0744	608.9	10.961	20.75	13.26	1.68
	35.02	28.92	73.72	0.00	0.0682	11.91	524.0	405.75	0.0741	605.4	10.897	20.62	13.17	1.68
	36.04	28.95	73.74	-0.00	0.0682	11.91	524.2	405.81	0.0742	607.0	10.925	20.67	13.22	1.68
	37.03	28.95	73.74	-0.00	0.0682	11.92	524.5	406.01	0.0746	610.2	10.983	20.78	13.30	1.68
	38.05	28.97	73.75	0.00	0.0681	11.91	523.9	405.57	0.0749	613.5	11.044	20.90	13.38	1.68
	39.03	28.93	73.72	-0.00	0.0680	11.89	523.1	405.03	0.0753	619.5	11.152	21.11	13.53	1.68
	40.03	28.97	73.72	0.00	0.0681	11.89	523.3	405.26	0.0752	617.0	11.105	21.02	13.47	1.68
	41.03	28.93	73.72	-0.00	0.0681	11.90	523.4	405.27	0.0749	615.9	11.087	20.98	13.44	1.68
	42.03	28.97	73.74	0.00	0.0682	11.91	524.1	405.73	0.0743	609.2	10.966	20.75	13.27	1.68
	43.10	28.94	73.72	0.00	0.0681	11.90	523.6	405.40	0.0742	606.8	10.923	20.67	13.21	1.68
	44.04	28.94	73.72	-0.00	0.0681	11.90	523.6	405.45	0.0742	605.7	10.903	20.64	13.18	1.68
	45.04	28.95	73.74	-0.00	0.0681	11.90	523.5	405.23	0.0742	606.0	10.909	20.64	13.19	1.68
	46.04	28.97	73.72	0.00	0.0681	11.90	523.6	405.50	0.0741	605.1	10.893	20.62	13.17	1.68
	47.02	28.97	73.72	0.00	0.0681	11.90	523.5	405.36	0.0742	606.3	10.913	20.66	13.20	1.68
	48.03	28.95	73.72	0.00	0.0680	11.89	523.0	404.98	0.0741	605.6	10.902	20.63	13.18	1.68
	49.02	28.94	73.77	0.00	0.0681	11.90	523.5	405.04	0.0744	608.2	10.948	20.71	13.25	1.68
	50.03	28.94	73.75	-0.00	0.0681	11.90	523.6	405.32	0.0744	609.1	10.963	20.74	13.27	1.68
	51.01	28.95	73.72	0.00	0.0681	11.91	523.9	405.70	0.0745	609.0	10.963	20.75	13.27	1.68
	52.10	28.95	73.75	0.00	0.0681	11.90	523.6	405.27	0.0745	609.7	10.974	20.76	13.28	1.68
	53.02	28.95	73.74	-0.00	0.0681	11.90	523.6	405.29	0.0745	610.3	10.985	20.79	13.30	1.68
	54.04	28.94	73.72	-0.00	0.0681	11.90	523.6	405.46	0.0745	609.7	10.975	20.77	13.29	1.68
	55.02	28.95	73.74	-0.00	0.0681	11.89	523.3	405.06	0.0747	611.6	11.009	20.83	13.33	1.68
	56.03	28.95	73.74	-0.00	0.0680	11.89	523.0	404.86	0.0749	614.5	11.062	20.93	13.41	1.68
	57.03	28.97	73.72	0.00	0.0681	11.90	523.4	405.33	0.0750	615.1	11.071	20.96	13.42	1.68
	58.03	28.95	73.77	0.00	0.0681	11.90	523.7	405.26	0.0750	615.4	11.076	20.95	13.43	1.68
	59.03	28.97	73.74	0.00	0.0681	11.91	523.8	405.52	0.0749	614.8	11.067	20.94	13.41	1.68
	60.03	28.97	73.72	0.00	0.0681	11.90	523.6	405.50	0.0750	616.3	11.093	21.00	13.45	1.68
	61.04	28.93	73.74	-0.00	0.0681	11.89	523.2	404.99	0.0750	615.4	11.077	20.96	13.43	1.68
	62.04	28.97	73.72	-0.00	0.0680	11.89	523.0	404.98	0.0748	613.5	11.044	20.90	13.38	1.68
	63.02	28.95	73.74	0.00	0.0680	11.87	522.5	404.42	0.0748	613.1	11.036	20.88	13.37	1.68
	64.04	28.99	73.77	0.00	0.0680	11.89	523.1	404.79	0.0748	613.8	11.049	20.90	13.39	1.68
	65.04	28.97	73.74	-0.00	0.0680	11.89	523.0	404.86	0.0748	613.0	11.034	20.88	13.37	1.68
	66.03	28.97	73.77	0.00	0.0680	11.88	522.9	404.64	0.0748	613.4	11.041	20.89	13.38	1.68
	67.02	28.95	73.72	0.00	0.0681	11.90	523.5	405.39	0.0748	613.6	11.044	20.90	13.38	1.68
	68.05	28.99	73.75	0.00	0.0681	11.90	523.8	405.46	0.0747	611.8	11.012	20.84	13.34	1.68
	69.02	28.95	73.72	0.00	0.0680	11.87	522.3	404.43	0.0749	614.3	11.057	20.93	13.40	1.68
	70.04	28.97	73.74	-0.00	0.0680	11.88	522.7	404.61	0.0748	613.8	11.048	20.90	13.39	1.68
	71.03	28.96	73.72	0.00	0.0680	11.89	523.1	405.05	0.0750	615.0	11.070	20.95	13.42	1.68
	72.03	28.95	73.74	0.00	0.0680	11.89	523.0	404.80	0.0749	614.5	11.061	20.93	13.41	1.68
	73.10	28.97	73.72	-0.00	0.0680	11.89	523.0	404.97	0.0749	613.8	11.048	20.91	13.39	1.68
	74.02	28.99	73.72	0.00	0.0680	11.88	522.7	404.78	0.0749	615.0	11.071	20.96	13.42	1.68
	75.02	28.99	73.72	0.00	0.0680	11.88	522.6	404.75	0.0752	617.3	11.111	21.03	13.48	1.68
	76.03	28.94	73.72	-0.00	0.0680	11.87	522.3	404.46	0.0752	618.0	11.124	21.06	13.49	1.68
	77.02	28.96	73.72	0.00	0.0680	11.87	522.5	404.60	0.0752	618.7	11.136	21.08	13.51	1.68
	78.03	28.98	73.77	-0.00	0.0680	11.89	523.0	404.72	0.0752	618.7	11.137	21.07	13.51	1.68
	79.01	28.98	73.75	0.00	0.0680	11.89	523.1	404.94	0.0752	618.7	11.137	21.07	13.51	1.68
	80.03	28.99	73.72	-0.00	0.0680	11.88	522.8	404.87	0.0754	620.0	11.160	21.13	13.54	1.68
	81.03	28.98	73.72	-0.00	0.0680	11.88	522.8	404.83	0.0753	619.7	11.154	21.11	13.54	1.68
	82.03	28.99	73.74	0.00	0.0679	11.86	521.8	403.99	0.0753	620.0	11.160	21.12	13.54	1.68
	83.01	29.02	73.77	0.00	0.0679	11.86	521.8	403.87	0.0754	620.7	11.172	21.14	13.56	1.68
	84.02	29.00	73.74	0.00	0.0679	11.86	522.1	404.18	0.0754	620.5	11.169	21.14	13.56	1.68
	85.08	29.00	73.72	0.00	0.0680	11.88	522.7	404.82	0.0752	618.4	11.131	21.07	13.50	1.68
	86.03	29.00	73.72	0.00	0.0680	11.88	522.8	404.89	0.0751	617.0	11.106	21.02	13.47	1.68
	87.03	29.00	73.74	0.00	0.0679	11.87	522.3	404.35	0.0752	617.9	11.122	21.05	13.49	1.68
	88.05	29.00	73.72	-0.00	0.0680	11.87	522.2	404.41	0.0753	618.7	11.136	21.08	13.51	1.68
	89.05	29.00	73.72	-0.00	0.0680	11.87	522.2	404.40	0.0755	621.4	11.186	21.18	13.58	1.68
	90.03	29.00	73.75	0.00	0.0680	11.87	522.2	404.26	0.0756	622.7	11.208	21.21	13.61	1.68
	91.04	29.00	73.72	-0.00	0.0679	11.85	521.5	403.93	0.0756	622.5	11.206	21.21	13.61	1.68
	92.04	29.00	73.72	-0.00	0.0680	11.87	522.2	404.40	0.0756	622.8	11.211	21.22	13.61	1.68
	93.02	29.00	73.75	0.00	0.0679	11.87	522.3	404.37	0.0755	622.6	11.207	21.21	13.61	1.68
	94.11	29.00	73.72	-0.00	0.0679	11.87	522.2	404.40	0.0756	623.9	11.231	21.26	13.64	1.68
	95.04	29.00	73.74	-0.00	0.0680	11.87	522.3	404.32	0.0756	623.9	11.230	21.25	13.64	1.68
	96.05	29.03	73.69	-0.00	0.0680	11.87	522.3	404.68	0.0755	621.9	11.194	21.20	13.59	1.68
	97.03	29.00	73.74	-0.00	0.0680	11.87	522.3	404.36	0.0756	623.5	11.223	21.24	13.63	1.68
	98.03	29.00	73.75	0.00	0.0680	11.87	522.2	404.31	0.0759	626.3	11.273	21.33	13.70	1.68
	99.01	29.00	73.77	0.00	0.0680	11.87	522.4	404.28	0.0761	629.6	11.332	21.44	13.78	1.69
	100.03	29.02	73.72	0.00	0.0679	11.87	522.3	404.52	0.0763	631.9	11.375	21.54	13.84	1.68
	101.03	29.00	73.75	0.00	0.0680	11.87	522.2	404.28	0.0765	633.4	11.401	21.58	13.87	1.68
	102.02	29.02	73.72	0.00	0.0679	11.85	521.6	403.97	0.0763	632.5	11.384	21.55	13.85	1.68
	103.10	29.03	73.74	-0.00	0.0679	11.85	521.6	403.84	0.0762	630.1	11.343	21.47	13.80	1.68
	104.02	29.00	73.75	0.00	0.0678	11.83	520.6	403.08	0.0762	630.1	11.341	21.46	13.79	1.68
	105.03	29.00	73.74	-0.00	0.0679	11.85	521.2	403.51	0.0762	631.0	11.358	21.49	13.81	1.69
	106.03	29.00	73.74	-0.00	0.0679	11.86	521.9	404.03	0.0762	631.3	11.363	21.50	13.82	1.68
	107.03	28.99	73.74	0.00	0.0680	11.87	522.1	404.22	0.0761	630.0	11.340	21.46	13.79	1.68
	108.03	29.03	73.72	-0.00	0.0680	11.87	522.4	404.65	0.0760	627.1	11.288	21.37	13.72	1.68
	109.01	29.02	73.74	0.00	0.0679	11.85	521.4	403.69	0.0761	630.0	11.341	21.46	13.79	1.68
	110.03	29.04	73.74	-0.00	0.0678	11.84	520.9	403.31	0.0761	629.5	11.330	21.45	13.78	1.68
	111.03	29.05	73.74	-0.00	0.0678	11.83	520.7	403.22	0.0761	629.8	11.337	21.46	13.79	1.69
	112.10	29.02	73.75	0.00	0.0679	11.85	521.6	403.84	0.0762	631.1	11.361	21.50	13.82	1.68
	113.01	29.02	73.72	0.00	0.0679	11.85	521.5	403.93	0.0762	630.4	11.347	21.48	13.80	1.68
	114.04	29.05	73.74	0.00	0.0679	11.85	521.4	403.75	0.0763	631.7	11.371	21.52	13.83	1.68
	115.10	29.02	73.74	0.00	0.0678	11.85	521.3	403.59	0.0764	632.5	11.385	21.55	13.85	1.68
	116.05	29.02	73.72	-0.00	0.0679	11.85	521.3	403.73	0.0763	632.2	11.380	21.54	13.84	1.68
	117.03	29.02	73.77	0.00	0.0679	11.85	521.5	403.64	0.0759	627.4	11.294	21.37	13.73	1.69
	118.03	29.02	73.74	0.00	0.0678	11.83	520.6	403.10	0.0761	629.6	11.332	21.45	13.78	1.69
	119.04	29.00	73.75	-0.00	0.0677	11.82	520.1	402.66	0.0763	631.9	11.375	21.53	13.84	1.68
	120.03	29.04	73.77	0.00	0.0678	11.83	520.4	402.81	0.0764	632.5	11.386	21.54	13.85	1.68
	121.04	29.04	73.74	-0.00	0.0678	11.84	520.9	403.34	0.0763	631.6	11.369	21.52	13.83	1.68
	122.04	29.04	73.74	-0.00	0.0679	11.85	521.5	403.77	0.0762	629.9	11.338	21.46	13.79	1.68
	123.02	29.04	73.77	0.00	0.0678	11.85	521.3	403.47	0.0761	629.5	11.332	21.44	13.78	1.69
	124.04	29.04	73.74	0.00	0.0678	11.84	521.0	403.44	0.0762	630.6	11.351	21.49	13.81	1.68
	125.03	29.04	73.72	0.00	0.0678	11.84	520.9	403.45	0.0761	629.6	11.333	21.46	13.78	1.68
	126.03	29.06	73.77	0.00	0.0678	11.84	520.9	403.20	0.0762	630.2	11.344	21.46	13.80	1.68
	127.02	29.09	73.74	0.00	0.0678	11.83	520.5	403.07	0.0762	630.0	11.340	21.47	13.80	1.68
