Jul 23 2015 at 9:42:41
Frequency: 1.00Hz.
CO2
Zero:  Value:0.95  Date:18 Mar 2005	 at 07:22:33	
Span:  Value:1.00  Date:18 Mar 2005	 at 07:25:09	
H2O
Zero:  Value:0.71  Date:18 Mar 2005	 at 07:52:31	
Span:  Value:0.99  Date:18 Mar 2005	 at 11:44:01	
	Relative Time	Temperature	Pressure	Aux Input	CO2 Absorptance	CO2 mmol/m3	CO2 mg/m3	CO2 umol/mol	H2O Absorptance	H2O mmol/m3	H2O g/m3	H2O mmol/mol	H2O(°C)	Cooler Voltage
	0.70	24.52	73.72	0.00	0.0687	12.09	532.0	405.94	0.0641	489.0	8.802	16.42	9.73	1.62
	1.73	24.52	73.74	-0.00	0.0691	12.13	533.9	407.24	0.0648	496.1	8.929	16.65	9.94	1.62
	2.73	24.52	73.74	-0.00	0.0691	12.12	533.3	406.76	0.0658	507.6	9.136	17.03	10.28	1.62
	3.73	24.52	73.72	-0.00	0.0689	12.10	532.3	406.17	0.0654	506.0	9.108	16.99	10.24	1.62
	4.71	24.57	73.72	0.00	0.0690	12.09	531.9	405.93	0.0658	506.5	9.117	17.01	10.26	1.62
	5.72	24.56	73.74	0.00	0.0689	12.08	531.7	405.59	0.0657	508.2	9.147	17.06	10.30	1.62
	6.71	24.56	73.72	0.00	0.0689	12.09	532.1	406.01	0.0658	509.5	9.171	17.11	10.34	1.62
	7.72	24.56	73.72	0.00	0.0689	12.08	531.7	405.72	0.0658	507.6	9.136	17.04	10.29	1.62
	8.72	24.56	73.77	-0.00	0.0689	12.09	532.0	405.71	0.0659	509.4	9.169	17.09	10.34	1.62
	9.73	24.56	73.72	-0.00	0.0688	12.07	531.2	405.34	0.0662	513.3	9.240	17.24	10.46	1.62
	10.72	24.58	73.72	0.00	0.0688	12.05	530.0	404.50	0.0659	510.8	9.195	17.15	10.38	1.62
	11.73	24.56	73.72	-0.00	0.0688	12.06	530.7	404.98	0.0658	507.4	9.133	17.04	10.28	1.62
	12.71	24.56	73.72	0.00	0.0685	12.01	528.4	403.19	0.0663	513.8	9.248	17.25	10.47	1.62
	13.71	24.56	73.75	0.00	0.0686	12.01	528.3	403.01	0.0663	515.6	9.280	17.30	10.52	1.62
	14.71	24.56	73.74	0.00	0.0685	11.99	527.6	402.43	0.0664	516.4	9.296	17.33	10.55	1.62
	15.71	24.56	73.72	0.00	0.0685	11.98	527.3	402.35	0.0664	517.0	9.306	17.36	10.56	1.62
	16.72	24.54	73.72	-0.00	0.0685	11.99	527.4	402.46	0.0664	514.7	9.265	17.28	10.49	1.62
	17.72	24.56	73.75	-0.00	0.0684	11.98	527.0	401.99	0.0666	517.0	9.306	17.35	10.56	1.62
	18.72	24.56	73.74	-0.00	0.0684	11.97	526.7	401.81	0.0662	513.5	9.243	17.24	10.46	1.62
	19.72	24.56	73.75	-0.00	0.0684	11.98	527.0	401.99	0.0658	511.9	9.214	17.18	10.41	1.62
	20.72	24.56	73.72	-0.00	0.0685	11.99	527.4	402.48	0.0659	508.0	9.144	17.06	10.30	1.62
	21.72	24.56	73.72	0.00	0.0683	11.95	525.8	401.25	0.0659	510.2	9.184	17.13	10.36	1.62
	22.70	24.56	73.72	0.00	0.0684	11.97	526.5	401.73	0.0658	508.5	9.152	17.07	10.31	1.62
	23.71	24.58	73.72	0.00	0.0684	11.96	526.3	401.65	0.0660	509.7	9.174	17.11	10.35	1.62
	24.71	24.58	73.72	-0.00	0.0683	11.95	525.9	401.37	0.0662	513.7	9.247	17.25	10.47	1.62
	25.73	24.58	73.72	-0.00	0.0683	11.95	526.0	401.40	0.0660	512.9	9.232	17.22	10.44	1.62
	26.71	24.58	73.72	0.00	0.0683	11.95	525.8	401.23	0.0664	515.4	9.277	17.31	10.52	1.62
	27.72	24.58	73.72	0.00	0.0683	11.94	525.6	401.08	0.0670	518.1	9.325	17.40	10.59	1.62
	28.72	24.63	73.77	-0.00	0.0681	11.92	524.3	399.92	0.0677	528.5	9.513	17.74	10.90	1.62
	29.73	24.58	73.69	-0.00	0.0680	11.90	523.5	399.67	0.0684	538.3	9.689	18.08	11.17	1.62
	30.80	24.58	73.72	-0.00	0.0680	11.88	522.9	399.04	0.0688	542.4	9.764	18.21	11.29	1.62
	31.71	24.59	73.69	0.00	0.0680	11.88	522.5	398.91	0.0690	546.8	9.843	18.37	11.41	1.62
	32.73	24.59	73.72	-0.00	0.0680	11.88	522.7	398.88	0.0690	545.5	9.818	18.32	11.37	1.62
	33.73	24.59	73.75	-0.00	0.0680	11.89	523.0	399.01	0.0691	547.3	9.852	18.37	11.42	1.62
	34.73	24.59	73.72	-0.00	0.0680	11.88	522.7	398.91	0.0686	538.4	9.691	18.08	11.17	1.62
	35.72	24.58	73.72	0.00	0.0679	11.87	522.2	398.48	0.0680	533.9	9.610	17.93	11.05	1.62
	36.72	24.59	73.72	-0.00	0.0680	11.87	522.5	398.73	0.0681	534.7	9.625	17.96	11.07	1.62
	37.72	24.59	73.72	-0.00	0.0681	11.89	523.2	399.29	0.0682	535.1	9.632	17.97	11.08	1.62
	38.70	24.59	73.72	0.00	0.0679	11.87	522.4	398.67	0.0682	536.6	9.659	18.02	11.12	1.62
	39.73	24.61	73.72	-0.00	0.0679	11.85	521.5	398.05	0.0690	546.5	9.837	18.35	11.40	1.62
	40.72	24.61	73.72	0.00	0.0679	11.84	521.1	397.73	0.0694	547.7	9.859	18.39	11.43	1.62
	41.73	24.61	73.72	0.00	0.0678	11.85	521.2	397.79	0.0694	550.9	9.915	18.50	11.52	1.62
	42.78	24.61	73.75	0.00	0.0678	11.84	521.0	397.49	0.0697	553.0	9.953	18.56	11.58	1.62
	43.73	24.59	73.72	-0.00	0.0678	11.84	521.0	397.65	0.0697	554.4	9.980	18.62	11.62	1.62
	44.71	24.61	73.72	-0.00	0.0678	11.84	520.8	397.50	0.0696	553.2	9.958	18.58	11.58	1.62
	45.71	24.65	73.72	0.00	0.0678	11.84	521.0	397.72	0.0692	547.4	9.853	18.39	11.43	1.62
	46.71	24.63	73.72	0.00	0.0678	11.83	520.5	397.29	0.0695	549.4	9.890	18.45	11.48	1.62
	47.72	24.63	73.72	-0.00	0.0678	11.83	520.5	397.27	0.0693	549.1	9.883	18.44	11.47	1.62
	48.72	24.61	73.72	-0.00	0.0678	11.83	520.7	397.42	0.0693	548.6	9.874	18.42	11.46	1.62
	49.78	24.63	73.74	0.00	0.0678	11.83	520.7	397.31	0.0690	544.8	9.806	18.29	11.35	1.62
	50.72	24.64	73.72	-0.00	0.0677	11.81	519.8	396.79	0.0691	545.4	9.818	18.32	11.37	1.62
	51.72	24.65	73.72	0.00	0.0677	11.79	519.0	396.13	0.0693	545.8	9.824	18.33	11.38	1.62
	52.71	24.64	73.72	0.00	0.0677	11.81	519.4	396.49	0.0698	555.5	9.998	18.66	11.65	1.62
	53.73	24.65	73.72	0.00	0.0677	11.80	519.3	396.43	0.0699	554.7	9.984	18.63	11.63	1.62
	54.71	24.65	73.77	0.00	0.0676	11.80	519.2	396.05	0.0699	556.5	10.017	18.68	11.68	1.62
	55.72	24.65	73.69	0.00	0.0676	11.79	518.8	396.11	0.0701	557.6	10.037	18.73	11.71	1.62
	56.72	24.67	73.74	-0.00	0.0675	11.78	518.2	395.40	0.0702	558.7	10.057	18.76	11.74	1.62
	57.74	24.65	73.74	-0.00	0.0675	11.75	517.2	394.64	0.0703	559.7	10.074	18.79	11.76	1.62
	58.72	24.66	73.75	0.00	0.0674	11.74	516.7	394.31	0.0697	553.8	9.968	18.59	11.60	1.62
	59.73	24.66	73.72	-0.00	0.0676	11.78	518.3	395.67	0.0699	555.2	9.994	18.65	11.64	1.62
	60.72	24.66	73.72	0.00	0.0676	11.79	518.7	395.93	0.0694	550.2	9.904	18.48	11.51	1.62
	61.73	24.68	73.72	-0.00	0.0676	11.79	518.6	395.86	0.0699	556.0	10.007	18.67	11.66	1.62
	62.71	24.67	73.72	0.00	0.0675	11.76	517.5	395.06	0.0700	560.2	10.084	18.82	11.78	1.62
	63.71	24.67	73.72	0.00	0.0675	11.76	517.5	395.02	0.0703	559.7	10.074	18.80	11.76	1.62
	64.71	24.66	73.72	0.00	0.0674	11.75	517.1	394.75	0.0706	562.4	10.124	18.89	11.84	1.62
	65.72	24.68	73.72	-0.00	0.0674	11.74	516.7	394.43	0.0706	563.7	10.147	18.94	11.87	1.62
	66.71	24.68	73.72	0.00	0.0673	11.74	516.4	394.19	0.0710	568.6	10.235	19.10	12.00	1.62
	67.72	24.68	73.72	0.00	0.0673	11.72	515.8	393.77	0.0710	570.6	10.271	19.17	12.06	1.62
	68.70	24.68	73.72	0.00	0.0674	11.73	516.2	394.10	0.0712	569.2	10.246	19.12	12.02	1.62
	69.73	24.68	73.74	-0.00	0.0673	11.72	515.8	393.61	0.0711	568.9	10.240	19.10	12.01	1.62
	70.72	24.70	73.69	0.00	0.0673	11.71	515.5	393.66	0.0715	573.5	10.323	19.27	12.13	1.62
	71.73	24.70	73.72	-0.00	0.0672	11.70	514.7	392.94	0.0720	580.8	10.454	19.51	12.33	1.62
	72.71	24.70	73.75	0.00	0.0672	11.70	514.8	392.86	0.0721	580.8	10.454	19.50	12.33	1.62
	73.71	24.70	73.72	0.00	0.0672	11.70	515.0	393.17	0.0722	582.9	10.492	19.58	12.38	1.62
	74.71	24.70	73.72	-0.00	0.0672	11.70	514.8	392.99	0.0726	587.8	10.581	19.75	12.51	1.62
	75.72	24.70	73.74	-0.00	0.0672	11.69	514.4	392.61	0.0725	586.5	10.557	19.69	12.48	1.62
	76.71	24.70	73.74	0.00	0.0672	11.70	514.6	392.74	0.0722	582.3	10.482	19.55	12.37	1.62
	77.78	24.72	73.72	0.00	0.0671	11.68	514.0	392.40	0.0722	582.9	10.492	19.58	12.38	1.62
	78.72	24.70	73.72	-0.00	0.0671	11.68	513.9	392.31	0.0723	584.1	10.513	19.62	12.41	1.62
	79.72	24.72	73.74	-0.00	0.0671	11.67	513.7	392.07	0.0733	594.0	10.693	19.95	12.67	1.62
	80.70	24.69	73.69	0.00	0.0671	11.67	513.4	392.05	0.0730	592.8	10.670	19.92	12.64	1.62
	81.71	24.72	73.72	-0.00	0.0670	11.66	512.9	391.62	0.0733	593.1	10.676	19.93	12.65	1.62
	82.73	24.72	73.72	-0.00	0.0670	11.65	512.5	391.25	0.0738	601.5	10.827	20.21	12.86	1.62
	83.80	24.72	73.69	-0.00	0.0669	11.64	512.0	391.04	0.0735	597.0	10.746	20.06	12.75	1.62
	84.72	24.72	73.75	-0.00	0.0669	11.64	512.2	390.95	0.0731	593.7	10.686	19.94	12.66	1.62
	85.72	24.72	73.72	0.00	0.0669	11.64	512.0	390.91	0.0737	599.4	10.790	20.14	12.81	1.62
	86.72	24.70	73.72	-0.00	0.0669	11.63	511.9	390.78	0.0741	604.8	10.886	20.32	12.94	1.62
	87.73	24.72	73.72	-0.00	0.0669	11.63	511.8	390.77	0.0739	603.6	10.864	20.28	12.91	1.62
	88.78	24.74	73.72	0.00	0.0669	11.63	511.9	390.85	0.0738	602.5	10.846	20.24	12.89	1.62
	89.73	24.70	73.72	-0.00	0.0669	11.64	512.1	390.94	0.0738	602.0	10.835	20.22	12.87	1.62
	90.72	24.75	73.74	-0.00	0.0669	11.62	511.2	390.24	0.0741	604.9	10.888	20.32	12.95	1.62
	91.71	24.75	73.72	0.00	0.0668	11.62	511.2	390.37	0.0740	604.6	10.882	20.31	12.94	1.62
	92.71	24.75	73.72	0.00	0.0668	11.61	510.7	390.00	0.0746	611.9	11.014	20.56	13.13	1.62
	93.73	24.75	73.74	-0.00	0.0668	11.61	510.7	389.81	0.0747	611.9	11.015	20.55	13.13	1.62
	94.72	24.75	73.72	-0.00	0.0667	11.59	510.1	389.48	0.0746	611.8	11.013	20.56	13.12	1.62
	95.78	24.75	73.72	0.00	0.0667	11.59	510.0	389.44	0.0745	609.6	10.973	20.48	13.07	1.62
	96.70	24.75	73.72	0.00	0.0667	11.59	509.9	389.33	0.0745	610.3	10.986	20.51	13.09	1.62
	97.72	24.75	73.72	-0.00	0.0667	11.57	509.3	388.88	0.0751	617.7	11.119	20.75	13.27	1.62
	98.72	24.75	73.72	-0.00	0.0666	11.57	509.3	388.89	0.0749	614.0	11.053	20.63	13.18	1.62
	99.73	24.75	73.74	-0.00	0.0665	11.54	507.9	387.71	0.0760	623.0	11.214	20.92	13.40	1.62
	100.71	24.75	73.72	-0.00	0.0664	11.53	507.1	387.21	0.0762	631.3	11.364	21.21	13.61	1.62
	101.71	24.75	73.72	0.00	0.0665	11.53	507.2	387.27	0.0763	631.1	11.360	21.20	13.60	1.62
	102.70	24.77	73.72	0.00	0.0664	11.53	507.5	387.51	0.0758	625.9	11.265	21.03	13.47	1.62
	103.71	24.79	73.72	0.00	0.0665	11.54	507.9	387.85	0.0753	620.0	11.160	20.83	13.33	1.62
	104.71	24.77	73.74	0.00	0.0666	11.56	508.8	388.38	0.0750	609.5	10.972	20.47	13.07	1.62
	105.71	24.77	73.72	0.00	0.0665	11.54	507.7	387.71	0.0757	621.8	11.192	20.89	13.37	1.62
	106.70	24.78	73.72	0.00	0.0665	11.54	507.6	387.61	0.0753	622.4	11.204	20.91	13.39	1.62
	107.72	24.79	73.72	-0.00	0.0664	11.53	507.3	387.42	0.0753	619.0	11.143	20.80	13.31	1.62
	108.72	24.79	73.72	0.00	0.0664	11.51	506.5	386.76	0.0756	625.8	11.265	21.03	13.47	1.62
	109.70	24.79	73.75	0.00	0.0663	11.50	506.0	386.28	0.0761	628.1	11.307	21.10	13.53	1.62
	110.73	24.79	73.80	0.00	0.0663	11.50	506.0	386.03	0.0759	627.7	11.299	21.07	13.52	1.62
	111.73	24.79	73.72	-0.00	0.0664	11.51	506.5	386.81	0.0753	621.5	11.187	20.88	13.37	1.62
	112.73	24.79	73.72	-0.00	0.0664	11.52	506.8	387.06	0.0750	616.0	11.089	20.70	13.23	1.62
	113.74	24.79	73.69	-0.00	0.0663	11.51	506.2	386.73	0.0753	619.0	11.142	20.81	13.30	1.62
	114.71	24.79	73.74	0.00	0.0663	11.49	505.7	386.03	0.0758	622.6	11.207	20.91	13.39	1.62
	115.72	24.79	73.74	0.00	0.0663	11.48	505.3	385.77	0.0761	628.3	11.310	21.11	13.53	1.62
	116.72	24.81	73.72	-0.00	0.0663	11.49	505.6	386.17	0.0761	630.3	11.345	21.18	13.58	1.62
	117.72	24.81	73.72	0.00	0.0663	11.49	505.4	386.02	0.0758	626.8	11.283	21.06	13.50	1.62
	118.72	24.84	73.72	0.00	0.0663	11.50	505.8	386.34	0.0754	621.8	11.193	20.90	13.38	1.62
	119.73	24.84	73.72	-0.00	0.0663	11.49	505.7	386.28	0.0753	621.9	11.193	20.90	13.38	1.62
	120.71	24.84	73.74	-0.00	0.0663	11.50	506.2	386.49	0.0756	624.4	11.239	20.98	13.44	1.62
