Jul 23 2015 at 11:38:05
Frequency: 1.00Hz.
CO2
Zero:  Value:0.95  Date:18 Mar 2005	 at 07:22:33	
Span:  Value:1.00  Date:18 Mar 2005	 at 07:25:09	
H2O
Zero:  Value:0.71  Date:18 Mar 2005	 at 07:52:31	
Span:  Value:0.99  Date:18 Mar 2005	 at 11:44:01	
	Relative Time	Temperature	Pressure	Aux Input	CO2 Absorptance	CO2 mmol/m3	CO2 mg/m3	CO2 umol/mol	H2O Absorptance	H2O mmol/m3	H2O g/m3	H2O mmol/mol	H2O(°C)	Cooler Voltage
	0.08	32.58	73.74	0.00	0.0675	11.72	515.9	404.12	0.0606	454.1	8.174	15.65	9.03	1.71
	1.09	32.54	73.77	0.00	0.0675	11.78	518.2	405.78	0.0607	453.3	8.159	15.62	9.00	1.71
	2.08	32.49	73.75	0.00	0.0675	11.75	517.0	404.91	0.0606	454.3	8.178	15.66	9.03	1.71
	3.07	32.53	73.77	0.00	0.0673	11.73	516.1	404.11	0.0599	448.7	8.077	15.46	8.84	1.71
	4.09	32.50	73.75	-0.00	0.0675	11.75	517.1	404.97	0.0594	442.8	7.970	15.26	8.65	1.71
	5.07	32.48	73.74	0.00	0.0675	11.76	517.4	405.17	0.0595	441.1	7.940	15.20	8.59	1.71
	6.08	32.51	73.80	-0.00	0.0674	11.75	516.8	404.51	0.0599	445.1	8.012	15.33	8.72	1.71
	7.08	32.50	73.82	0.00	0.0673	11.74	516.5	404.07	0.0607	450.4	8.106	15.50	8.90	1.71
	8.06	32.48	73.77	0.00	0.0672	11.71	515.4	403.48	0.0610	456.4	8.215	15.72	9.09	1.71
	9.10	32.52	73.77	0.00	0.0672	11.70	515.0	403.20	0.0610	456.5	8.217	15.73	9.10	1.71
	10.08	32.54	73.77	0.00	0.0672	11.70	514.8	403.06	0.0612	459.6	8.273	15.83	9.20	1.71
	11.09	32.58	73.77	0.00	0.0671	11.67	513.7	402.25	0.0622	468.7	8.437	16.15	9.50	1.71
	12.09	32.56	73.80	0.00	0.0671	11.67	513.6	402.03	0.0624	470.0	8.460	16.19	9.54	1.71
	13.09	32.58	73.77	-0.00	0.0670	11.66	513.1	401.81	0.0633	476.4	8.576	16.42	9.74	1.71
	14.10	32.58	73.77	-0.00	0.0670	11.65	512.4	401.30	0.0633	481.6	8.669	16.59	9.90	1.71
	15.09	32.60	73.77	0.00	0.0670	11.64	512.3	401.22	0.0632	482.5	8.685	16.63	9.93	1.71
	16.08	32.58	73.77	0.00	0.0670	11.64	512.0	400.95	0.0636	486.1	8.750	16.75	10.04	1.71
	17.10	32.63	73.75	0.00	0.0668	11.64	512.0	401.17	0.0639	487.2	8.769	16.79	10.07	1.71
	18.10	32.60	73.80	-0.00	0.0669	11.61	510.9	399.98	0.0648	496.5	8.937	17.10	10.36	1.71
	19.09	32.71	73.77	-0.00	0.0667	11.59	510.0	399.57	0.0653	504.7	9.084	17.40	10.61	1.71
	20.09	32.62	73.75	0.00	0.0667	11.59	510.2	399.71	0.0659	508.5	9.154	17.53	10.72	1.71
	21.09	32.62	73.77	0.00	0.0667	11.58	509.5	399.01	0.0662	514.6	9.263	17.73	10.89	1.71
	22.09	32.65	73.77	0.00	0.0666	11.58	509.6	399.12	0.0665	514.5	9.260	17.73	10.89	1.71
	23.07	32.65	73.74	0.00	0.0664	11.51	506.5	396.84	0.0682	537.9	9.682	18.54	11.56	1.71
	24.10	32.69	73.80	-0.00	0.0665	11.55	508.2	397.96	0.0680	532.1	9.578	18.33	11.40	1.71
	25.09	32.64	73.75	0.00	0.0665	11.54	507.7	397.78	0.0681	533.6	9.605	18.40	11.44	1.71
	26.10	32.68	73.77	0.00	0.0663	11.50	506.0	396.37	0.0689	543.7	9.786	18.74	11.73	1.71
	27.08	32.69	73.77	-0.00	0.0659	11.45	503.9	394.78	0.0721	562.2	10.120	19.38	12.24	1.71
	28.08	32.69	73.77	0.00	0.0663	11.48	505.2	395.80	0.0691	551.0	9.919	18.99	11.93	1.71
	29.08	32.67	73.77	0.00	0.0660	11.43	503.1	394.12	0.0713	571.7	10.291	19.71	12.49	1.71
	30.08	32.67	73.75	0.00	0.0663	11.50	505.9	396.44	0.0696	549.4	9.889	18.94	11.88	1.71
	31.07	32.67	73.77	0.00	0.0664	11.50	506.1	396.43	0.0687	543.2	9.778	18.72	11.71	1.71
	32.09	32.67	73.77	-0.00	0.0663	11.49	505.5	395.94	0.0686	547.5	9.854	18.87	11.83	1.71
	33.07	32.67	73.77	0.00	0.0662	11.49	505.8	396.18	0.0702	547.7	9.859	18.88	11.84	1.71
	34.09	32.69	73.74	0.00	0.0664	11.51	506.3	396.77	0.0688	545.0	9.811	18.79	11.76	1.71
	35.07	32.67	73.82	0.00	0.0662	11.50	506.2	396.23	0.0698	552.5	9.946	19.03	11.97	1.71
	36.08	32.67	73.74	-0.00	0.0662	11.48	505.0	395.74	0.0700	556.9	10.024	19.20	12.09	1.71
	37.08	32.68	73.77	-0.00	0.0662	11.46	504.0	394.82	0.0704	562.2	10.120	19.38	12.23	1.71
	38.08	32.73	73.77	0.00	0.0661	11.46	504.2	395.04	0.0706	564.4	10.159	19.46	12.29	1.71
	39.08	32.68	73.77	0.00	0.0661	11.44	503.5	394.42	0.0709	566.1	10.189	19.51	12.34	1.71
	40.08	32.68	73.77	0.00	0.0660	11.43	503.1	394.11	0.0713	573.2	10.317	19.76	12.53	1.71
	41.08	32.71	73.77	0.00	0.0660	11.44	503.4	394.35	0.0715	573.8	10.328	19.78	12.55	1.71
	42.09	32.71	73.74	-0.00	0.0661	11.44	503.2	394.34	0.0709	571.4	10.286	19.70	12.48	1.71
	43.09	32.68	73.77	0.00	0.0660	11.43	502.7	393.83	0.0711	571.1	10.280	19.68	12.47	1.71
	44.16	32.69	73.77	0.00	0.0659	11.44	503.5	394.43	0.0717	575.2	10.354	19.83	12.58	1.71
	45.08	32.71	73.74	0.00	0.0659	11.42	502.4	393.69	0.0716	575.7	10.362	19.85	12.60	1.71
	46.10	32.71	73.74	-0.00	0.0660	11.41	502.3	393.62	0.0716	574.2	10.335	19.80	12.56	1.71
	47.08	32.69	73.77	0.00	0.0660	11.42	502.6	393.70	0.0721	579.8	10.436	19.98	12.70	1.71
	48.09	32.69	73.74	-0.00	0.0659	11.42	502.5	393.76	0.0717	576.8	10.382	19.89	12.62	1.71
	49.09	32.69	73.75	-0.00	0.0660	11.43	502.9	394.05	0.0718	578.1	10.406	19.93	12.66	1.71
	50.09	32.67	73.77	-0.00	0.0660	11.43	503.1	394.06	0.0716	576.9	10.383	19.88	12.63	1.71
	51.11	32.71	73.77	-0.00	0.0659	11.41	502.1	393.40	0.0720	580.9	10.457	20.03	12.74	1.71
	52.09	32.68	73.72	-0.00	0.0659	11.41	502.0	393.48	0.0724	582.3	10.481	20.08	12.77	1.71
	53.09	32.71	73.77	0.00	0.0658	11.39	501.3	392.72	0.0728	589.1	10.603	20.31	12.95	1.71
	54.07	32.69	73.77	0.00	0.0658	11.38	500.5	392.11	0.0728	586.3	10.553	20.21	12.87	1.71
	55.08	32.71	73.77	0.00	0.0658	11.38	500.9	392.40	0.0732	592.7	10.669	20.43	13.04	1.71
	56.08	32.73	73.80	0.00	0.0657	11.37	500.1	391.70	0.0742	599.8	10.797	20.67	13.23	1.71
	57.10	32.71	73.75	-0.00	0.0657	11.36	500.0	391.88	0.0739	601.6	10.829	20.75	13.27	1.71
	58.09	32.71	73.74	-0.00	0.0658	11.37	500.1	391.94	0.0733	597.5	10.755	20.60	13.16	1.71
	59.16	32.71	73.74	-0.00	0.0657	11.37	500.4	392.18	0.0737	597.1	10.747	20.59	13.15	1.71
	60.09	32.71	73.74	-0.00	0.0657	11.35	499.2	391.25	0.0742	605.2	10.894	20.87	13.36	1.71
	61.09	32.71	73.77	-0.00	0.0657	11.35	499.3	391.16	0.0743	606.2	10.912	20.90	13.39	1.71
	62.07	32.76	73.75	0.00	0.0657	11.36	499.9	391.83	0.0743	606.9	10.924	20.93	13.41	1.71
	63.09	32.76	73.77	0.00	0.0656	11.34	499.0	391.01	0.0743	608.2	10.947	20.97	13.44	1.71
	64.07	32.76	73.74	0.00	0.0655	11.36	499.9	391.80	0.0748	606.7	10.920	20.92	13.40	1.71
	65.08	32.73	73.74	0.00	0.0655	11.32	498.1	390.41	0.0751	615.2	11.074	21.22	13.61	1.71
	66.07	32.76	73.77	0.00	0.0656	11.33	498.3	390.48	0.0749	614.5	11.061	21.19	13.60	1.71
	67.08	32.78	73.77	0.00	0.0655	11.33	498.5	390.63	0.0748	614.1	11.053	21.17	13.59	1.71
	68.09	32.76	73.77	-0.00	0.0655	11.32	498.0	390.22	0.0749	617.3	11.111	21.28	13.67	1.71
	69.08	32.72	73.77	-0.00	0.0656	11.33	498.6	390.63	0.0751	618.2	11.127	21.31	13.69	1.71
	70.09	32.73	73.77	-0.00	0.0655	11.34	499.0	390.92	0.0749	609.2	10.966	21.00	13.46	1.71
	71.14	32.75	73.74	0.00	0.0655	11.33	498.6	390.81	0.0753	621.7	11.190	21.44	13.78	1.71
	72.09	32.76	73.77	-0.00	0.0655	11.33	498.6	390.68	0.0754	620.3	11.166	21.39	13.74	1.71
	73.15	32.76	73.74	0.00	0.0654	11.31	497.6	390.04	0.0757	623.2	11.218	21.49	13.81	1.71
	74.10	32.73	73.77	0.00	0.0655	11.31	497.7	389.93	0.0757	622.6	11.206	21.46	13.80	1.71
	75.08	32.75	73.77	0.00	0.0654	11.30	497.2	389.59	0.0763	630.9	11.356	21.75	14.00	1.71
	76.08	32.76	73.74	0.00	0.0654	11.31	497.6	390.06	0.0764	630.2	11.344	21.74	13.99	1.71
	77.08	32.73	73.80	0.00	0.0654	11.29	496.9	389.16	0.0764	631.6	11.368	21.76	14.02	1.71
	78.08	32.73	73.77	0.00	0.0654	11.31	497.4	389.73	0.0765	633.0	11.395	21.82	14.05	1.71
	79.09	32.76	73.74	-0.00	0.0655	11.32	497.9	390.30	0.0764	636.4	11.455	21.95	14.14	1.71
	80.11	32.76	73.77	-0.00	0.0654	11.31	497.6	389.88	0.0762	631.7	11.371	21.78	14.02	1.71
	81.09	32.76	73.74	-0.00	0.0654	11.31	497.7	390.07	0.0755	623.4	11.222	21.50	13.82	1.71
	82.10	32.78	73.77	-0.00	0.0655	11.31	497.6	389.96	0.0762	629.7	11.334	21.71	13.97	1.71
	83.07	32.74	73.77	0.00	0.0655	11.31	497.8	390.05	0.0759	625.6	11.261	21.57	13.87	1.71
	84.10	32.73	73.74	-0.00	0.0654	11.30	497.3	389.74	0.0761	630.5	11.349	21.74	13.99	1.71
	85.10	32.76	73.74	-0.00	0.0654	11.29	496.9	389.49	0.0765	630.1	11.342	21.73	13.98	1.71
	86.10	32.78	73.77	-0.00	0.0653	11.31	497.8	390.06	0.0764	637.1	11.468	21.97	14.15	1.71
	87.09	32.73	73.74	-0.00	0.0653	11.29	496.8	389.39	0.0765	634.9	11.428	21.89	14.10	1.71
	88.08	32.76	73.77	0.00	0.0654	11.28	496.5	389.05	0.0756	627.8	11.301	21.65	13.93	1.71
	89.08	32.71	73.77	0.00	0.0654	11.29	496.8	389.20	0.0755	625.1	11.252	21.55	13.86	1.71
	90.08	32.78	73.74	0.00	0.0655	11.32	498.0	390.33	0.0761	628.3	11.310	21.67	13.94	1.71
	91.07	32.75	73.75	0.00	0.0654	11.31	497.5	389.97	0.0759	628.8	11.318	21.68	13.95	1.71
	92.09	32.75	73.77	-0.00	0.0656	11.34	498.7	390.78	0.0754	621.0	11.178	21.41	13.76	1.71
	93.07	32.78	73.77	0.00	0.0655	11.32	498.0	390.27	0.0752	615.2	11.073	21.21	13.61	1.71
	94.08	32.78	73.77	0.00	0.0655	11.31	497.4	389.78	0.0750	614.9	11.068	21.20	13.61	1.72
	95.08	32.77	73.77	0.00	0.0655	11.33	498.3	390.50	0.0745	611.7	11.011	21.09	13.53	1.72
	96.08	32.78	73.77	-0.00	0.0655	11.30	497.4	389.77	0.0756	621.9	11.193	21.44	13.78	1.72
	97.09	32.76	73.77	-0.00	0.0654	11.32	498.2	390.33	0.0752	617.8	11.121	21.30	13.68	1.71
	98.14	32.73	73.77	0.00	0.0656	11.33	498.6	390.63	0.0751	617.8	11.120	21.30	13.68	1.71
	99.09	32.71	73.74	-0.00	0.0655	11.34	498.9	391.02	0.0748	615.6	11.080	21.23	13.62	1.72
	100.07	32.73	73.80	-0.00	0.0656	11.33	498.7	390.57	0.0743	609.3	10.967	21.00	13.47	1.72
	101.09	32.74	73.77	-0.00	0.0656	11.33	498.6	390.63	0.0743	609.7	10.974	21.02	13.48	1.72
	102.06	32.75	73.80	0.00	0.0655	11.33	498.6	390.50	0.0749	614.6	11.062	21.18	13.60	1.72
	103.08	32.75	73.75	0.00	0.0655	11.32	497.9	390.25	0.0753	620.4	11.168	21.40	13.74	1.71
	104.08	32.76	73.77	0.00	0.0653	11.26	495.4	388.18	0.0771	645.3	11.616	22.25	14.35	1.72
	105.08	32.75	73.77	0.00	0.0655	11.31	497.8	390.03	0.0752	622.9	11.212	21.47	13.81	1.72
	106.08	32.80	73.77	0.00	0.0652	11.26	495.4	388.22	0.0776	642.8	11.570	22.16	14.29	1.72
	107.17	32.77	73.74	0.00	0.0654	11.30	497.1	389.69	0.0769	637.2	11.470	21.98	14.16	1.72
	108.09	32.77	73.74	0.00	0.0654	11.29	496.9	389.53	0.0762	631.8	11.372	21.79	14.02	1.72
	109.09	32.76	73.75	0.00	0.0655	11.31	497.4	389.89	0.0757	623.9	11.231	21.52	13.83	1.72
	110.09	32.79	73.77	-0.00	0.0655	11.31	497.8	390.07	0.0762	629.1	11.325	21.69	13.96	1.71
	111.09	32.75	73.77	0.00	0.0654	11.30	497.1	389.53	0.0762	631.7	11.371	21.78	14.02	1.72
	112.09	32.80	73.77	-0.00	0.0654	11.29	496.9	389.43	0.0764	632.3	11.381	21.80	14.04	1.72
	113.08	32.78	73.77	0.00	0.0653	11.29	496.6	389.15	0.0765	632.7	11.389	21.82	14.05	1.72
	114.10	32.75	73.74	-0.00	0.0653	11.26	495.5	388.35	0.0768	642.0	11.557	22.14	14.27	1.72
	115.08	32.77	73.74	-0.00	0.0654	11.28	496.2	388.96	0.0772	642.7	11.568	22.17	14.29	1.72
	116.10	32.77	73.77	-0.00	0.0652	11.26	495.6	388.31	0.0778	647.0	11.647	22.31	14.39	1.72
	117.08	32.77	73.77	0.00	0.0653	11.27	495.8	388.47	0.0778	647.6	11.656	22.33	14.41	1.72
	118.09	32.80	73.74	-0.00	0.0653	11.27	495.7	388.60	0.0778	650.2	11.704	22.43	14.47	1.72
	119.09	32.79	73.77	0.00	0.0652	11.27	495.9	388.59	0.0780	651.8	11.733	22.47	14.51	1.72
	120.07	32.84	73.74	0.00	0.0652	11.25	495.2	388.22	0.0781	653.5	11.763	22.54	14.55	1.72
