Jul 23 2015 at 11:18:34
Frequency: 1.00Hz.
CO2
Zero:  Value:0.95  Date:18 Mar 2005	 at 07:22:33	
Span:  Value:1.00  Date:18 Mar 2005	 at 07:25:09	
H2O
Zero:  Value:0.71  Date:18 Mar 2005	 at 07:52:31	
Span:  Value:0.99  Date:18 Mar 2005	 at 11:44:01	
	Relative Time	Temperature	Pressure	Aux Input	CO2 Absorptance	CO2 mmol/m3	CO2 mg/m3	CO2 umol/mol	H2O Absorptance	H2O mmol/m3	H2O g/m3	H2O mmol/mol	H2O(°C)	Cooler Voltage
	0.66	30.73	73.77	0.00	0.0693	12.19	536.2	417.33	0.0554	399.9	7.198	13.70	7.07	1.66
	1.65	30.69	73.74	0.00	0.0693	12.17	535.6	416.95	0.0557	401.4	7.225	13.75	7.12	1.66
	2.65	30.69	73.74	0.00	0.0691	12.14	534.3	415.98	0.0558	405.2	7.294	13.88	7.26	1.66
	3.67	30.68	73.77	0.00	0.0691	12.14	534.1	415.62	0.0556	401.8	7.233	13.76	7.13	1.66
	4.66	30.63	73.75	0.00	0.0690	12.11	532.9	414.80	0.0557	401.0	7.217	13.73	7.10	1.66
	5.68	30.61	73.74	-0.00	0.0690	12.10	532.3	414.26	0.0560	408.4	7.351	13.99	7.37	1.66
	6.68	30.59	73.74	0.00	0.0690	12.10	532.3	414.30	0.0565	408.2	7.348	13.98	7.36	1.66
	7.66	30.61	73.77	0.00	0.0690	12.10	532.5	414.30	0.0578	424.2	7.636	14.52	7.92	1.66
	8.67	30.61	73.74	0.00	0.0690	12.10	532.4	414.38	0.0568	413.4	7.441	14.16	7.54	1.66
	9.66	30.63	73.74	0.00	0.0688	12.06	530.7	413.11	0.0562	408.7	7.357	14.00	7.38	1.66
	10.67	30.70	73.74	-0.00	0.0689	12.10	532.5	414.58	0.0566	411.4	7.406	14.09	7.48	1.66
	11.67	30.71	73.75	0.00	0.0690	12.10	532.5	414.60	0.0570	415.9	7.486	14.25	7.64	1.66
	12.67	30.71	73.74	-0.00	0.0690	12.11	533.1	415.03	0.0570	416.3	7.494	14.26	7.65	1.66
	13.68	30.74	73.77	-0.00	0.0691	12.12	533.5	415.23	0.0577	423.2	7.617	14.49	7.89	1.66
	14.73	30.73	73.75	0.00	0.0690	12.11	533.0	415.04	0.0572	419.0	7.542	14.35	7.75	1.66
	15.66	30.71	73.72	0.00	0.0690	12.11	533.0	415.09	0.0574	417.2	7.510	14.30	7.68	1.66
	16.64	30.77	73.77	0.00	0.0690	12.11	532.9	414.83	0.0586	428.2	7.707	14.67	8.07	1.66
	17.66	30.77	73.74	0.00	0.0689	12.10	532.2	414.45	0.0585	429.5	7.730	14.72	8.11	1.66
	18.67	30.77	73.74	-0.00	0.0689	12.09	532.0	414.29	0.0586	433.1	7.796	14.84	8.24	1.66
	19.66	30.78	73.74	0.00	0.0689	12.09	531.9	414.18	0.0598	440.4	7.927	15.09	8.48	1.66
	20.65	30.78	73.77	0.00	0.0688	12.08	531.4	413.69	0.0602	448.6	8.075	15.37	8.76	1.66
	21.65	30.80	73.74	0.00	0.0688	12.06	530.7	413.29	0.0597	444.0	7.991	15.21	8.60	1.66
	22.65	30.79	73.77	0.00	0.0688	12.06	530.5	413.01	0.0596	445.2	8.014	15.25	8.65	1.66
	23.68	30.77	73.74	-0.00	0.0688	12.06	530.7	413.31	0.0591	438.1	7.886	15.01	8.41	1.66
	24.66	30.77	73.77	-0.00	0.0688	12.05	530.0	412.56	0.0583	426.2	7.671	14.60	8.00	1.66
	25.74	30.79	73.77	-0.00	0.0687	12.05	530.1	412.70	0.0586	431.1	7.760	14.77	8.17	1.66
	26.66	30.79	73.74	-0.00	0.0687	12.04	529.9	412.70	0.0590	435.5	7.839	14.92	8.32	1.66
	27.74	30.81	73.74	-0.00	0.0687	12.04	529.7	412.55	0.0589	437.1	7.867	14.98	8.37	1.66
	28.64	30.81	73.74	0.00	0.0687	12.04	529.6	412.45	0.0590	436.3	7.853	14.95	8.35	1.66
	29.66	30.84	73.74	0.00	0.0687	12.04	529.7	412.55	0.0589	435.7	7.842	14.93	8.33	1.66
	30.67	30.81	73.74	0.00	0.0687	12.04	529.7	412.53	0.0587	430.1	7.742	14.74	8.14	1.66
	31.67	30.86	73.72	0.00	0.0687	12.04	529.9	412.87	0.0593	437.4	7.874	15.00	8.39	1.66
	32.67	30.83	73.74	0.00	0.0686	12.03	529.1	412.12	0.0589	437.0	7.867	14.98	8.37	1.66
	33.66	30.84	73.75	0.00	0.0686	12.01	528.5	411.68	0.0591	437.2	7.870	14.98	8.38	1.66
	34.66	30.83	73.74	0.00	0.0687	12.03	529.2	412.15	0.0593	436.5	7.857	14.96	8.35	1.66
	35.68	30.84	73.72	0.00	0.0686	12.01	528.6	411.85	0.0592	441.4	7.945	15.13	8.52	1.66
	36.68	30.82	73.75	0.00	0.0686	12.00	528.2	411.38	0.0589	432.2	7.779	14.81	8.21	1.66
	37.67	30.84	73.77	-0.00	0.0686	12.02	529.0	411.92	0.0593	439.4	7.910	15.05	8.45	1.66
	38.66	30.80	73.72	0.00	0.0686	12.02	528.9	412.07	0.0595	440.0	7.919	15.08	8.47	1.66
	39.66	30.81	73.77	0.00	0.0686	12.01	528.2	411.27	0.0597	442.5	7.966	15.16	8.56	1.66
	40.69	30.81	73.74	-0.00	0.0686	12.01	528.6	411.69	0.0596	440.8	7.935	15.11	8.50	1.66
	41.67	30.81	73.72	-0.00	0.0686	12.01	528.3	411.57	0.0596	441.5	7.947	15.13	8.52	1.66
	42.68	30.83	73.74	-0.00	0.0686	12.02	528.7	411.79	0.0595	443.8	7.989	15.21	8.60	1.66
	43.65	30.81	73.74	0.00	0.0686	12.02	528.9	411.89	0.0600	445.4	8.017	15.26	8.65	1.66
	44.68	30.85	73.77	-0.00	0.0685	12.00	528.1	411.24	0.0601	447.2	8.049	15.32	8.71	1.66
	45.66	30.86	73.77	0.00	0.0686	12.01	528.3	411.38	0.0604	450.8	8.114	15.44	8.83	1.66
	46.67	30.83	73.77	-0.00	0.0686	12.01	528.4	411.39	0.0603	450.2	8.104	15.42	8.81	1.66
	47.67	30.83	73.74	-0.00	0.0686	12.01	528.4	411.53	0.0603	450.8	8.114	15.45	8.83	1.66
	48.67	30.85	73.77	-0.00	0.0685	12.00	528.0	411.10	0.0605	451.9	8.134	15.48	8.87	1.66
	49.66	30.84	73.74	0.00	0.0685	12.00	528.1	411.36	0.0609	455.4	8.197	15.61	8.98	1.66
	50.65	30.86	73.72	0.00	0.0684	11.98	527.3	410.90	0.0599	448.1	8.065	15.36	8.74	1.66
	51.67	30.85	73.74	-0.00	0.0685	11.99	527.8	411.09	0.0614	457.4	8.233	15.68	9.05	1.66
	52.67	30.83	73.77	-0.00	0.0685	12.00	527.8	410.94	0.0611	458.0	8.245	15.69	9.07	1.66
	53.65	30.81	73.72	0.00	0.0685	11.99	527.7	411.11	0.0612	458.5	8.253	15.72	9.08	1.66
	54.66	30.80	73.72	0.00	0.0685	11.99	527.6	411.06	0.0603	452.4	8.143	15.51	8.88	1.66
	55.65	30.81	73.74	0.00	0.0685	11.99	527.6	410.89	0.0602	446.7	8.040	15.31	8.69	1.66
	56.66	30.85	73.74	-0.00	0.0684	11.98	527.1	410.59	0.0603	447.9	8.062	15.35	8.74	1.66
	57.66	30.85	73.75	0.00	0.0684	11.97	526.9	410.40	0.0606	449.2	8.086	15.40	8.78	1.66
	58.72	30.84	73.75	0.00	0.0685	11.98	527.3	410.69	0.0610	455.3	8.195	15.60	8.98	1.66
	59.67	30.87	73.77	-0.00	0.0685	11.99	527.5	410.76	0.0614	461.7	8.310	15.82	9.19	1.66
	60.65	30.92	73.74	-0.00	0.0684	11.98	527.0	410.61	0.0616	463.3	8.339	15.88	9.24	1.66
	61.68	30.89	73.72	-0.00	0.0684	11.97	526.8	410.56	0.0613	465.1	8.371	15.95	9.30	1.66
	62.66	30.86	73.75	0.00	0.0685	11.97	526.8	410.34	0.0616	460.8	8.294	15.79	9.16	1.66
	63.68	30.86	73.74	-0.00	0.0684	11.98	527.0	410.51	0.0621	469.2	8.445	16.08	9.42	1.66
	64.66	30.87	73.77	0.00	0.0684	11.98	527.0	410.35	0.0623	471.0	8.478	16.14	9.48	1.66
	65.68	30.85	73.74	-0.00	0.0685	11.98	527.0	410.47	0.0624	473.1	8.515	16.21	9.55	1.66
	66.66	30.87	73.75	0.00	0.0684	11.98	527.1	410.61	0.0623	471.3	8.483	16.15	9.49	1.66
	67.66	30.85	73.74	0.00	0.0684	11.96	526.1	409.82	0.0621	468.3	8.430	16.05	9.40	1.66
	68.67	30.85	73.74	-0.00	0.0684	11.97	526.7	410.24	0.0623	470.8	8.474	16.14	9.48	1.66
	69.67	30.85	73.77	0.00	0.0684	11.97	526.6	410.04	0.0626	472.1	8.498	16.17	9.52	1.67
	70.65	30.85	73.74	0.00	0.0684	11.97	526.6	410.17	0.0622	472.8	8.511	16.21	9.54	1.66
	71.67	30.85	73.77	0.00	0.0683	11.95	525.7	409.35	0.0616	464.0	8.353	15.90	9.26	1.66
	72.65	30.85	73.74	0.00	0.0684	11.96	526.3	409.93	0.0624	471.1	8.480	16.15	9.49	1.66
	73.66	30.88	73.77	0.00	0.0684	11.98	526.9	410.36	0.0625	473.9	8.530	16.24	9.57	1.66
	74.68	30.81	73.74	-0.00	0.0684	11.97	526.5	410.05	0.0631	479.9	8.638	16.44	9.76	1.66
	75.66	30.81	73.75	0.00	0.0684	11.97	526.9	410.35	0.0631	479.4	8.629	16.43	9.74	1.67
	76.66	30.83	73.77	0.00	0.0684	11.96	526.4	409.87	0.0633	481.5	8.667	16.50	9.81	1.67
	77.66	30.84	73.77	0.00	0.0684	11.96	526.3	409.82	0.0633	480.9	8.656	16.48	9.79	1.66
	78.67	30.81	73.77	-0.00	0.0681	11.93	525.1	408.81	0.0620	472.4	8.503	16.18	9.53	1.66
	79.67	30.81	73.75	-0.00	0.0683	11.95	525.6	409.37	0.0630	477.3	8.592	16.36	9.68	1.66
	80.65	30.80	73.72	0.00	0.0683	11.95	526.0	409.78	0.0630	478.2	8.608	16.39	9.71	1.66
	81.67	30.81	73.74	0.00	0.0683	11.94	525.4	409.20	0.0629	477.3	8.591	16.36	9.68	1.67
	82.65	30.84	73.77	0.00	0.0683	11.95	525.7	409.32	0.0631	479.8	8.636	16.44	9.76	1.67
	83.66	30.81	73.77	0.00	0.0683	11.95	525.7	409.28	0.0631	479.9	8.638	16.44	9.76	1.67
	84.65	30.84	73.77	0.00	0.0683	11.95	525.9	409.47	0.0633	481.1	8.659	16.48	9.80	1.67
	85.72	30.81	73.77	0.00	0.0683	11.95	525.6	409.25	0.0632	481.8	8.673	16.51	9.82	1.67
	86.66	30.82	73.77	0.00	0.0682	11.93	525.0	408.76	0.0626	472.6	8.507	16.19	9.53	1.67
	87.66	30.81	73.74	-0.00	0.0683	11.94	525.3	409.13	0.0631	482.3	8.682	16.53	9.83	1.67
	88.67	30.81	73.74	-0.00	0.0682	11.94	525.5	409.29	0.0635	483.6	8.704	16.57	9.87	1.67
	89.73	30.84	73.72	0.00	0.0682	11.94	525.3	409.30	0.0634	482.9	8.693	16.56	9.85	1.66
	90.67	30.78	73.75	0.00	0.0682	11.93	524.7	408.65	0.0636	484.4	8.719	16.60	9.90	1.67
	91.65	30.81	73.77	0.00	0.0683	11.94	525.4	409.03	0.0639	487.8	8.780	16.71	10.00	1.66
	92.66	30.81	73.74	0.00	0.0683	11.94	525.2	409.03	0.0637	486.4	8.755	16.67	9.96	1.67
	93.68	30.80	73.77	0.00	0.0682	11.92	524.4	408.27	0.0632	481.7	8.671	16.50	9.82	1.67
	94.66	30.81	73.77	0.00	0.0681	11.90	523.5	407.60	0.0631	478.4	8.611	16.39	9.71	1.67
	95.74	30.84	73.72	0.00	0.0682	11.90	523.7	408.04	0.0632	479.9	8.638	16.45	9.76	1.67
	96.66	30.81	73.75	0.00	0.0682	11.91	524.0	408.08	0.0638	483.7	8.707	16.58	9.88	1.67
	97.67	30.78	73.77	-0.00	0.0682	11.92	524.7	408.44	0.0639	488.2	8.788	16.72	10.01	1.67
	98.67	30.77	73.75	-0.00	0.0682	11.91	524.1	408.14	0.0637	489.7	8.815	16.78	10.06	1.67
	99.65	30.79	73.77	0.00	0.0681	11.92	524.3	408.18	0.0640	489.6	8.813	16.77	10.06	1.67
	100.67	30.79	73.77	0.00	0.0681	11.91	524.0	407.93	0.0638	489.6	8.812	16.77	10.06	1.67
	101.67	30.77	73.77	-0.00	0.0679	11.85	521.5	405.99	0.0627	474.9	8.548	16.27	9.60	1.67
	102.66	30.81	73.77	0.00	0.0679	11.85	521.4	405.92	0.0625	472.5	8.505	16.19	9.53	1.67
	103.65	30.77	73.77	0.00	0.0680	11.88	522.7	406.93	0.0630	479.1	8.624	16.41	9.73	1.67
	104.66	30.85	73.75	-0.00	0.0681	11.89	523.0	407.39	0.0635	481.9	8.675	16.52	9.82	1.67
	105.67	30.78	73.74	-0.00	0.0682	11.91	524.1	408.15	0.0641	490.8	8.835	16.82	10.09	1.67
	106.66	30.79	73.74	0.00	0.0681	11.91	523.9	408.04	0.0641	489.8	8.816	16.78	10.06	1.67
	107.67	30.84	73.72	-0.00	0.0682	11.91	524.0	408.32	0.0643	492.4	8.863	16.88	10.14	1.67
	108.73	30.79	73.74	0.00	0.0681	11.89	523.4	407.58	0.0646	495.5	8.919	16.98	10.24	1.67
	109.65	30.77	73.77	0.00	0.0681	11.90	523.7	407.67	0.0647	496.4	8.935	17.00	10.26	1.67
	110.67	30.79	73.77	-0.00	0.0680	11.89	523.2	407.34	0.0645	495.6	8.921	16.98	10.24	1.67
	111.65	30.81	73.77	0.00	0.0681	11.91	524.1	408.05	0.0647	497.0	8.946	17.03	10.28	1.67
	112.66	30.80	73.75	0.00	0.0681	11.91	524.0	408.08	0.0652	502.2	9.040	17.21	10.44	1.67
	113.65	30.81	73.74	0.00	0.0680	11.89	523.1	407.42	0.0647	496.2	8.932	17.00	10.26	1.67
	114.64	30.83	73.74	0.00	0.0680	11.88	522.9	407.25	0.0643	494.6	8.903	16.95	10.21	1.67
	115.66	30.85	73.75	0.00	0.0681	11.89	523.1	407.46	0.0651	499.0	8.982	17.10	10.35	1.67
	116.64	30.85	73.75	0.00	0.0681	11.90	523.7	407.90	0.0654	500.2	9.004	17.14	10.38	1.67
	117.66	30.83	73.77	0.00	0.0680	11.90	523.4	407.55	0.0655	507.6	9.136	17.39	10.60	1.67
	118.64	30.82	73.74	0.00	0.0680	11.88	522.8	407.20	0.0648	498.1	8.967	17.07	10.32	1.67
	119.68	30.87	73.74	-0.00	0.0681	11.88	522.9	407.36	0.0645	491.2	8.841	16.84	10.11	1.67
