Jul 23 2015 at 12:27:16
Frequency: 1.00Hz.
CO2
Zero:  Value:0.95  Date:18 Mar 2005	 at 07:22:33	
Span:  Value:1.00  Date:18 Mar 2005	 at 07:25:09	
H2O
Zero:  Value:0.71  Date:18 Mar 2005	 at 07:52:31	
Span:  Value:0.99  Date:18 Mar 2005	 at 11:44:01	
	Relative Time	Temperature	Pressure	Aux Input	CO2 Absorptance	CO2 mmol/m3	CO2 mg/m3	CO2 umol/mol	H2O Absorptance	H2O mmol/m3	H2O g/m3	H2O mmol/mol	H2O(°C)	Cooler Voltage
	0.64	38.26	73.77	0.00	0.0675	11.76	517.6	412.84	0.0625	475.4	8.557	16.68	9.98	1.72
	1.65	38.23	73.77	0.00	0.0675	11.78	518.4	413.48	0.0626	472.5	8.505	16.58	9.89	1.72
	2.64	38.26	73.77	0.00	0.0676	11.77	517.9	413.11	0.0624	472.9	8.512	16.60	9.90	1.72
	3.63	38.29	73.77	0.00	0.0676	11.79	518.8	413.83	0.0625	473.1	8.515	16.60	9.91	1.72
	4.63	38.24	73.77	0.00	0.0676	11.81	519.6	414.44	0.0624	470.2	8.463	16.50	9.81	1.72
	5.63	38.29	73.80	0.00	0.0677	11.80	519.3	414.13	0.0630	478.6	8.614	16.79	10.08	1.72
	6.66	38.29	73.77	-0.00	0.0678	11.84	520.9	415.57	0.0626	474.2	8.535	16.64	9.94	1.72
	7.64	38.25	73.77	-0.00	0.0678	11.83	520.7	415.31	0.0628	476.1	8.570	16.71	10.00	1.72
	8.64	38.29	73.77	0.00	0.0677	11.81	519.7	414.60	0.0627	475.2	8.553	16.68	9.97	1.72
	9.64	38.31	73.77	-0.00	0.0677	11.81	519.7	414.60	0.0632	481.0	8.658	16.88	10.16	1.72
	10.64	38.29	73.74	0.00	0.0676	11.82	519.9	414.86	0.0628	479.2	8.626	16.83	10.10	1.72
	11.62	38.29	73.74	0.00	0.0677	11.82	520.1	415.05	0.0630	477.0	8.586	16.75	10.03	1.72
	12.64	38.30	73.77	0.00	0.0677	11.81	519.7	414.55	0.0630	480.4	8.646	16.86	10.14	1.72
	13.63	38.29	73.77	0.00	0.0677	11.81	519.4	414.36	0.0634	485.0	8.730	17.02	10.28	1.72
	14.63	38.29	73.72	0.00	0.0676	11.80	519.1	414.39	0.0638	486.6	8.758	17.09	10.33	1.72
	15.63	38.29	73.77	0.00	0.0677	11.80	519.3	414.27	0.0640	490.5	8.828	17.21	10.45	1.72
	16.63	38.28	73.74	0.00	0.0677	11.81	519.8	414.77	0.0640	489.2	8.806	17.18	10.41	1.72
	17.63	38.25	73.77	0.00	0.0677	11.82	519.9	414.66	0.0646	497.6	8.957	17.46	10.66	1.72
	18.64	38.26	73.77	-0.00	0.0677	11.81	519.5	414.35	0.0646	495.1	8.912	17.38	10.59	1.72
	19.64	38.23	73.77	0.00	0.0676	11.80	519.0	413.93	0.0656	507.6	9.137	17.81	10.96	1.72
	20.64	38.26	73.77	-0.00	0.0675	11.80	519.1	414.07	0.0664	507.3	9.132	17.81	10.95	1.72
	21.64	38.26	73.77	-0.00	0.0676	11.78	518.4	413.53	0.0663	517.4	9.312	18.16	11.25	1.72
	22.62	38.26	73.77	0.00	0.0678	11.81	519.8	414.59	0.0645	499.4	8.989	17.53	10.72	1.72
	23.63	38.28	73.74	0.00	0.0675	11.79	518.8	413.98	0.0645	493.3	8.880	17.32	10.54	1.72
	24.63	38.29	73.77	0.00	0.0675	11.76	517.5	412.84	0.0652	504.3	9.077	17.70	10.86	1.72
	25.65	38.30	73.80	0.00	0.0675	11.78	518.1	413.20	0.0650	497.9	8.963	17.47	10.68	1.73
	26.71	38.26	73.77	0.00	0.0672	11.71	515.0	410.83	0.0672	524.8	9.447	18.42	11.47	1.72
	27.66	38.21	73.80	0.00	0.0672	11.69	514.4	410.07	0.0673	528.4	9.511	18.54	11.57	1.72
	28.63	38.24	73.74	0.00	0.0673	11.71	515.3	411.17	0.0667	520.2	9.364	18.26	11.33	1.72
	29.64	38.25	73.77	0.00	0.0675	11.76	517.4	412.70	0.0649	499.0	8.982	17.51	10.70	1.72
	30.64	38.24	73.77	-0.00	0.0674	11.75	517.0	412.34	0.0656	507.4	9.134	17.81	10.96	1.72
	31.64	38.21	73.77	0.00	0.0679	11.78	518.2	413.24	0.0641	492.9	8.872	17.30	10.52	1.73
	32.64	38.25	73.80	0.00	0.0674	11.75	516.9	412.11	0.0649	499.9	8.998	17.54	10.73	1.72
	33.63	38.24	73.77	0.00	0.0674	11.75	516.9	412.25	0.0652	501.2	9.022	17.59	10.77	1.72
	34.63	38.28	73.80	0.00	0.0674	11.75	516.9	412.20	0.0653	501.5	9.027	17.60	10.78	1.72
	35.63	38.23	73.80	0.00	0.0672	11.71	515.2	410.77	0.0665	516.8	9.303	18.13	11.23	1.72
	36.63	38.26	73.74	0.00	0.0673	11.72	515.8	411.60	0.0654	501.4	9.025	17.60	10.78	1.73
	37.64	38.26	73.77	0.00	0.0673	11.71	515.4	411.09	0.0652	501.3	9.023	17.59	10.77	1.73
	38.64	38.29	73.77	0.00	0.0672	11.70	514.6	410.52	0.0656	504.5	9.081	17.71	10.87	1.72
	39.64	38.29	73.77	0.00	0.0670	11.66	512.8	409.10	0.0658	510.0	9.181	17.90	11.04	1.73
	40.62	38.29	73.80	0.00	0.0672	11.68	514.0	409.92	0.0658	507.2	9.129	17.80	10.95	1.72
	41.64	38.31	73.77	0.00	0.0670	11.66	513.2	409.46	0.0649	502.8	9.050	17.65	10.82	1.72
	42.63	38.31	73.77	0.00	0.0670	11.66	512.8	409.12	0.0660	514.9	9.268	18.07	11.18	1.73
	43.63	38.31	73.77	-0.00	0.0670	11.65	512.4	408.80	0.0646	497.7	8.959	17.47	10.67	1.73
	44.65	38.30	73.80	-0.00	0.0669	11.63	511.9	408.20	0.0649	502.5	9.045	17.63	10.81	1.73
	45.63	38.31	73.77	0.00	0.0669	11.63	511.6	408.17	0.0659	510.7	9.193	17.93	11.06	1.73
	46.64	38.28	73.77	-0.00	0.0669	11.63	511.8	408.22	0.0654	502.7	9.049	17.64	10.82	1.72
	47.64	38.36	73.77	-0.00	0.0669	11.63	511.7	408.29	0.0657	508.2	9.148	17.84	10.99	1.73
	48.63	38.35	73.74	0.00	0.0669	11.65	512.5	409.01	0.0658	510.0	9.179	17.91	11.04	1.73
	49.62	38.38	73.74	0.00	0.0669	11.63	511.6	408.35	0.0654	505.3	9.095	17.75	10.90	1.73
	50.62	38.37	73.77	0.00	0.0668	11.62	511.1	407.80	0.0664	511.6	9.209	17.96	11.09	1.73
	51.62	38.35	73.74	0.00	0.0667	11.59	510.0	407.09	0.0672	524.6	9.443	18.42	11.46	1.73
	52.62	38.38	73.77	0.00	0.0668	11.59	510.1	407.00	0.0675	529.6	9.533	18.60	11.61	1.73
	53.63	38.38	73.77	0.00	0.0667	11.60	510.5	407.36	0.0665	515.5	9.279	18.10	11.20	1.73
	54.65	38.38	73.80	0.00	0.0668	11.61	510.7	407.37	0.0658	516.3	9.293	18.12	11.22	1.73
	55.63	38.41	73.80	0.00	0.0667	11.60	510.6	407.30	0.0665	512.5	9.225	17.99	11.11	1.73
	56.66	38.37	73.77	-0.00	0.0666	11.56	508.5	405.79	0.0685	538.2	9.688	18.90	11.85	1.73
	57.64	38.35	73.74	-0.00	0.0665	11.54	507.6	405.15	0.0685	541.7	9.751	19.02	11.95	1.73
	58.66	38.36	73.77	-0.00	0.0665	11.53	507.4	404.85	0.0682	539.2	9.705	18.93	11.88	1.73
	59.64	38.30	73.77	-0.00	0.0666	11.55	508.3	405.53	0.0675	528.6	9.515	18.56	11.58	1.73
	60.72	38.35	73.77	-0.00	0.0666	11.56	508.6	405.80	0.0671	522.2	9.399	18.33	11.39	1.73
	61.65	38.36	73.77	-0.00	0.0665	11.56	508.6	405.82	0.0674	525.9	9.466	18.46	11.50	1.73
	62.63	38.36	73.80	0.00	0.0664	11.51	506.6	404.05	0.0692	543.2	9.778	19.06	11.99	1.73
	63.63	38.26	73.69	0.00	0.0664	11.52	507.0	404.84	0.0686	539.3	9.707	18.95	11.88	1.73
	64.63	38.35	73.74	0.00	0.0665	11.54	507.7	405.24	0.0675	528.2	9.507	18.55	11.57	1.73
	65.64	38.33	73.77	0.00	0.0665	11.54	507.9	405.20	0.0676	527.7	9.499	18.52	11.55	1.73
	66.64	38.38	73.77	0.00	0.0665	11.54	507.6	405.04	0.0674	530.3	9.545	18.62	11.63	1.73
	67.64	38.37	73.77	0.00	0.0664	11.53	507.3	404.75	0.0674	529.3	9.528	18.58	11.60	1.73
	68.64	38.32	73.80	0.00	0.0664	11.52	506.9	404.30	0.0676	526.7	9.480	18.48	11.52	1.73
	69.64	38.29	73.80	-0.00	0.0663	11.49	505.7	403.30	0.0681	536.2	9.652	18.82	11.79	1.73
	70.64	38.30	73.75	-0.00	0.0662	11.47	504.8	402.87	0.0688	542.8	9.770	19.06	11.98	1.73
	71.64	38.31	73.77	0.00	0.0661	11.45	503.9	402.02	0.0697	551.6	9.929	19.36	12.22	1.73
	72.63	38.32	73.77	0.00	0.0660	11.43	503.0	401.34	0.0704	562.3	10.121	19.74	12.51	1.73
	73.65	38.29	73.77	-0.00	0.0661	11.45	503.8	401.89	0.0699	555.1	9.991	19.48	12.32	1.73
	74.69	38.36	73.74	0.00	0.0660	11.44	503.2	401.65	0.0695	550.3	9.906	19.33	12.19	1.73
	75.63	38.31	73.74	0.00	0.0662	11.45	504.0	402.19	0.0699	555.5	10.000	19.51	12.33	1.73
	76.63	38.37	73.74	0.00	0.0661	11.46	504.3	402.53	0.0686	544.2	9.796	19.11	12.02	1.73
	77.64	38.38	73.77	-0.00	0.0661	11.47	504.6	402.67	0.0686	538.2	9.687	18.89	11.85	1.73
	78.70	38.41	73.80	0.00	0.0660	11.43	503.0	401.24	0.0686	539.8	9.717	18.95	11.90	1.73
	79.62	38.41	73.77	0.00	0.0661	11.45	503.7	401.93	0.0682	535.9	9.647	18.82	11.79	1.73
	80.70	38.38	73.77	0.00	0.0662	11.46	504.2	402.36	0.0684	536.5	9.656	18.84	11.80	1.73
	81.65	38.37	73.74	-0.00	0.0662	11.46	504.1	402.40	0.0684	536.8	9.663	18.85	11.81	1.73
	82.62	38.38	73.77	0.00	0.0662	11.47	504.7	402.72	0.0679	533.2	9.597	18.72	11.71	1.73
	83.71	38.43	73.77	-0.00	0.0661	11.46	504.1	402.29	0.0677	529.5	9.531	18.59	11.61	1.73
	84.63	38.43	73.77	-0.00	0.0661	11.44	503.4	401.72	0.0675	527.2	9.490	18.51	11.54	1.73
	85.63	38.45	73.77	0.00	0.0663	11.49	505.4	403.34	0.0665	520.1	9.362	18.27	11.34	1.73
	86.63	38.48	73.77	0.00	0.0661	11.45	503.8	402.17	0.0667	518.9	9.340	18.22	11.30	1.73
	87.64	38.48	73.82	-0.00	0.0662	11.48	505.0	402.84	0.0659	510.3	9.186	17.91	11.05	1.73
	88.64	38.50	73.77	0.00	0.0663	11.49	505.7	403.64	0.0657	511.1	9.199	17.95	11.08	1.73
	89.64	38.50	73.77	0.00	0.0664	11.52	506.7	404.45	0.0660	512.1	9.218	17.99	11.11	1.73
	90.65	38.48	73.75	-0.00	0.0663	11.51	506.3	404.23	0.0660	511.1	9.199	17.96	11.08	1.73
	91.64	38.48	73.77	-0.00	0.0663	11.50	505.8	403.73	0.0666	517.2	9.309	18.16	11.25	1.73
	92.65	38.48	73.77	-0.00	0.0663	11.49	505.4	403.38	0.0674	525.5	9.459	18.46	11.50	1.73
	93.71	38.48	73.77	0.00	0.0662	11.47	504.5	402.66	0.0684	535.6	9.641	18.81	11.78	1.73
	94.65	38.50	73.74	-0.00	0.0661	11.44	503.5	402.08	0.0691	545.5	9.818	19.17	12.06	1.74
	95.64	38.50	73.77	-0.00	0.0661	11.45	504.0	402.30	0.0689	541.8	9.753	19.03	11.96	1.74
	96.63	38.50	73.77	0.00	0.0661	11.45	503.9	402.26	0.0688	544.0	9.792	19.11	12.02	1.73
	97.64	38.47	73.77	-0.00	0.0661	11.44	503.6	401.92	0.0690	543.7	9.787	19.09	12.01	1.73
	98.64	38.49	73.74	0.00	0.0661	11.44	503.4	401.96	0.0688	544.9	9.809	19.15	12.05	1.73
	99.62	38.50	73.74	0.00	0.0661	11.45	503.7	402.24	0.0687	541.4	9.745	19.02	11.95	1.73
	100.64	38.50	73.77	0.00	0.0660	11.45	503.6	402.03	0.0686	541.1	9.740	19.00	11.94	1.74
	101.62	38.49	73.80	0.00	0.0660	11.44	503.5	401.77	0.0688	543.5	9.783	19.08	12.01	1.74
	102.63	38.48	73.77	0.00	0.0659	11.43	502.8	401.37	0.0696	551.5	9.927	19.37	12.23	1.74
	103.65	38.44	73.80	-0.00	0.0659	11.41	502.2	400.69	0.0695	550.8	9.914	19.33	12.21	1.73
	104.65	38.50	73.77	-0.00	0.0660	11.42	502.7	401.26	0.0694	550.0	9.901	19.32	12.19	1.73
	105.63	38.49	73.77	0.00	0.0660	11.43	502.8	401.33	0.0692	547.1	9.848	19.22	12.11	1.74
	106.70	38.50	73.77	-0.00	0.0660	11.42	502.6	401.22	0.0693	547.3	9.851	19.22	12.11	1.74
	107.62	38.47	73.77	0.00	0.0659	11.42	502.4	401.03	0.0698	553.4	9.961	19.43	12.28	1.74
	108.62	38.47	73.77	0.00	0.0659	11.41	502.0	400.67	0.0697	552.8	9.950	19.41	12.26	1.73
	109.62	38.48	73.77	0.00	0.0657	11.40	501.7	400.42	0.0695	550.3	9.905	19.33	12.19	1.74
	110.64	38.48	73.74	-0.00	0.0657	11.37	500.1	399.30	0.0697	552.9	9.952	19.42	12.27	1.74
	111.63	38.47	73.77	-0.00	0.0659	11.40	501.7	400.46	0.0696	551.2	9.922	19.36	12.22	1.74
	112.63	38.45	73.77	0.00	0.0659	11.42	502.6	401.18	0.0683	533.0	9.595	18.72	11.71	1.74
	113.63	38.48	73.77	-0.00	0.0661	11.45	503.7	402.07	0.0674	521.9	9.394	18.33	11.39	1.74
	114.63	38.48	73.74	0.00	0.0660	11.44	503.6	402.08	0.0672	523.8	9.428	18.40	11.45	1.74
	115.66	38.46	73.77	-0.00	0.0660	11.43	503.0	401.51	0.0670	523.3	9.419	18.38	11.43	1.74
	116.64	38.45	73.77	0.00	0.0660	11.44	503.1	401.58	0.0673	524.3	9.437	18.41	11.46	1.74
	117.64	38.45	73.77	0.00	0.0660	11.42	502.7	401.21	0.0677	530.1	9.543	18.62	11.63	1.74
	118.70	38.51	73.80	0.00	0.0660	11.43	502.9	401.34	0.0673	527.2	9.490	18.51	11.55	1.74
