Jul 23 2015 at 9:53:28
Frequency: 1.00Hz.
CO2
Zero:  Value:0.95  Date:18 Mar 2005	 at 07:22:33	
Span:  Value:1.00  Date:18 Mar 2005	 at 07:25:09	
H2O
Zero:  Value:0.71  Date:18 Mar 2005	 at 07:52:31	
Span:  Value:0.99  Date:18 Mar 2005	 at 11:44:01	
	Relative Time	Temperature	Pressure	Aux Input	CO2 Absorptance	CO2 mmol/m3	CO2 mg/m3	CO2 umol/mol	H2O Absorptance	H2O mmol/m3	H2O g/m3	H2O mmol/mol	H2O(°C)	Cooler Voltage
	0.22	26.52	73.72	-0.00	0.0678	11.85	521.5	400.54	0.0758	623.9	11.230	21.09	13.51	1.64
	1.20	26.52	73.74	0.00	0.0680	11.87	522.3	401.05	0.0758	609.6	10.973	20.60	13.16	1.64
	2.20	26.52	73.72	0.00	0.0678	11.84	521.1	400.29	0.0786	645.3	11.615	21.81	14.03	1.64
	3.20	26.52	73.72	0.00	0.0675	11.78	518.4	398.17	0.0804	678.8	12.219	22.94	14.82	1.64
	4.21	26.52	73.80	-0.00	0.0676	11.77	517.9	397.39	0.0804	686.3	12.353	23.17	14.99	1.64
	5.20	26.52	73.74	0.00	0.0677	11.80	519.4	398.80	0.0793	668.9	12.041	22.60	14.59	1.64
	6.21	26.52	73.72	-0.00	0.0676	11.80	519.2	398.79	0.0791	667.5	12.016	22.56	14.56	1.64
	7.19	26.52	73.80	0.00	0.0679	11.85	521.2	399.95	0.0757	631.1	11.361	21.31	13.69	1.64
	8.22	26.52	73.72	-0.00	0.0679	11.88	522.8	401.53	0.0736	595.3	10.715	20.12	12.80	1.64
	9.19	26.53	73.72	0.00	0.0678	11.83	520.3	399.69	0.0750	621.4	11.186	21.00	13.45	1.64
	10.20	26.56	73.72	0.00	0.0678	11.84	520.9	400.18	0.0750	620.3	11.166	20.97	13.43	1.64
	11.26	26.54	73.72	0.00	0.0679	11.85	521.6	400.69	0.0747	612.9	11.032	20.72	13.24	1.64
	12.20	26.55	73.72	0.00	0.0680	11.87	522.4	401.30	0.0738	601.3	10.824	20.32	12.95	1.64
	13.20	26.56	73.69	-0.00	0.0679	11.87	522.1	401.23	0.0738	601.2	10.821	20.33	12.95	1.64
	14.21	26.56	73.72	-0.00	0.0679	11.86	521.7	400.74	0.0744	607.5	10.935	20.53	13.11	1.64
	15.23	26.56	73.72	-0.00	0.0679	11.86	521.8	400.84	0.0760	626.3	11.273	21.17	13.57	1.64
	16.21	26.58	73.74	-0.00	0.0679	11.85	521.5	400.54	0.0765	632.3	11.381	21.37	13.72	1.64
	17.22	26.58	73.69	0.00	0.0679	11.86	521.8	400.99	0.0761	625.8	11.264	21.16	13.56	1.64
	18.22	26.57	73.72	-0.00	0.0680	11.87	522.2	401.16	0.0759	626.5	11.278	21.18	13.58	1.64
	19.22	26.58	73.74	-0.00	0.0679	11.85	521.5	400.47	0.0760	624.2	11.236	21.09	13.52	1.64
	20.20	26.59	73.72	0.00	0.0679	11.85	521.4	400.61	0.0758	624.6	11.242	21.11	13.53	1.64
	21.20	26.57	73.72	0.00	0.0679	11.87	522.1	401.08	0.0761	630.2	11.344	21.30	13.67	1.64
	22.20	26.59	73.72	0.00	0.0679	11.85	521.6	400.71	0.0762	630.1	11.342	21.30	13.67	1.64
	23.27	26.59	73.72	0.00	0.0679	11.85	521.5	400.66	0.0758	627.3	11.291	21.20	13.60	1.64
	24.21	26.61	73.72	-0.00	0.0679	11.85	521.4	400.62	0.0763	630.7	11.352	21.32	13.68	1.64
	25.21	26.61	73.72	0.00	0.0678	11.84	520.9	400.25	0.0758	625.5	11.259	21.15	13.56	1.64
	26.19	26.61	73.72	0.00	0.0678	11.84	521.1	400.36	0.0762	628.6	11.316	21.25	13.64	1.64
	27.21	26.61	73.72	0.00	0.0679	11.85	521.5	400.71	0.0763	632.9	11.393	21.40	13.74	1.64
	28.19	26.61	73.72	-0.00	0.0679	11.86	522.1	401.12	0.0764	633.8	11.408	21.43	13.76	1.64
	29.20	26.63	73.74	-0.00	0.0679	11.85	521.5	400.56	0.0764	634.3	11.417	21.44	13.77	1.64
	30.19	26.63	73.72	0.00	0.0678	11.84	520.8	400.17	0.0763	632.6	11.387	21.39	13.73	1.64
	31.22	26.62	73.74	-0.00	0.0678	11.83	520.6	399.88	0.0761	629.0	11.321	21.26	13.64	1.64
	32.20	26.63	73.72	-0.00	0.0679	11.84	520.9	400.29	0.0765	630.1	11.342	21.30	13.67	1.64
	33.21	26.63	73.72	-0.00	0.0678	11.84	521.0	400.36	0.0763	633.2	11.397	21.41	13.75	1.64
	34.20	26.63	73.77	0.00	0.0679	11.84	521.0	400.08	0.0766	633.4	11.401	21.40	13.75	1.64
	35.21	26.63	73.72	-0.00	0.0679	11.85	521.4	400.61	0.0768	636.9	11.465	21.53	13.84	1.64
	36.19	26.63	73.74	0.00	0.0678	11.83	520.6	399.93	0.0766	637.1	11.467	21.53	13.84	1.64
	37.19	26.63	73.72	0.00	0.0678	11.84	520.7	400.13	0.0769	640.2	11.524	21.65	13.92	1.64
	38.19	26.64	73.72	0.00	0.0679	11.85	521.3	400.58	0.0770	641.2	11.542	21.68	13.94	1.64
	39.20	26.66	73.72	-0.00	0.0678	11.83	520.5	400.01	0.0772	643.7	11.587	21.77	14.00	1.64
	40.19	26.65	73.74	0.00	0.0677	11.82	520.0	399.45	0.0777	648.3	11.670	21.91	14.11	1.64
	41.28	26.66	73.72	0.00	0.0677	11.81	519.8	399.43	0.0780	651.4	11.725	22.03	14.19	1.64
	42.21	26.69	73.72	-0.00	0.0678	11.82	520.1	399.75	0.0776	647.3	11.651	21.89	14.09	1.64
	43.21	26.67	73.75	0.00	0.0677	11.81	519.7	399.27	0.0780	651.8	11.733	22.03	14.20	1.64
	44.20	26.73	73.72	0.00	0.0677	11.81	519.5	399.30	0.0784	657.8	11.841	22.25	14.34	1.64
	45.23	26.69	73.72	-0.00	0.0676	11.81	519.4	399.21	0.0789	662.5	11.925	22.40	14.45	1.64
	46.19	26.67	73.72	0.00	0.0676	11.78	518.4	398.41	0.0784	658.4	11.852	22.26	14.35	1.64
	47.22	26.69	73.72	0.00	0.0676	11.78	518.4	398.39	0.0782	657.1	11.829	22.22	14.32	1.64
	48.19	26.69	73.72	0.00	0.0677	11.81	519.8	399.51	0.0778	646.1	11.629	21.85	14.06	1.64
	49.20	26.69	73.72	0.00	0.0677	11.81	519.7	399.41	0.0780	651.9	11.735	22.05	14.20	1.64
	50.20	26.69	73.72	-0.00	0.0679	11.85	521.4	400.71	0.0774	647.5	11.654	21.89	14.09	1.64
	51.22	26.68	73.72	-0.00	0.0679	11.86	521.6	400.89	0.0774	645.3	11.615	21.82	14.04	1.64
	52.20	26.69	73.72	0.00	0.0677	11.83	520.5	400.00	0.0777	648.9	11.681	21.94	14.13	1.64
	53.21	26.72	73.72	-0.00	0.0676	11.79	519.0	398.89	0.0787	662.8	11.930	22.41	14.46	1.64
	54.21	26.70	73.72	-0.00	0.0676	11.78	518.5	398.52	0.0789	662.4	11.924	22.40	14.45	1.64
	55.21	26.70	73.72	-0.00	0.0675	11.79	518.6	398.59	0.0790	664.1	11.953	22.46	14.49	1.64
	56.19	26.70	73.72	0.00	0.0676	11.78	518.2	398.26	0.0788	666.7	12.000	22.55	14.55	1.64
	57.21	26.70	73.74	0.00	0.0675	11.78	518.2	398.13	0.0793	668.6	12.034	22.60	14.59	1.64
	58.20	26.72	73.75	-0.00	0.0674	11.76	517.3	397.49	0.0799	673.7	12.127	22.78	14.71	1.64
	59.20	26.76	73.72	0.00	0.0675	11.77	517.8	398.05	0.0792	668.9	12.040	22.62	14.60	1.64
	60.20	26.72	73.72	-0.00	0.0676	11.78	518.1	398.26	0.0790	665.1	11.972	22.49	14.51	1.64
	61.22	26.74	73.74	-0.00	0.0676	11.78	518.4	398.36	0.0792	668.4	12.031	22.60	14.59	1.64
	62.18	26.72	73.74	0.00	0.0675	11.78	518.3	398.23	0.0792	665.9	11.986	22.51	14.53	1.64
	63.21	26.72	73.72	0.00	0.0675	11.78	518.2	398.29	0.0793	669.0	12.041	22.62	14.60	1.64
	64.27	26.74	73.72	0.00	0.0675	11.79	518.9	398.88	0.0793	665.1	11.972	22.50	14.51	1.64
	65.21	26.76	73.72	-0.00	0.0675	11.74	516.4	396.94	0.0793	670.1	12.062	22.67	14.63	1.64
	66.19	26.77	73.72	0.00	0.0678	11.77	517.9	398.14	0.0787	669.0	12.043	22.63	14.60	1.64
	67.19	26.78	73.74	0.00	0.0674	11.75	516.9	397.25	0.0793	669.2	12.046	22.63	14.61	1.64
	68.20	26.76	73.72	-0.00	0.0674	11.75	517.2	397.56	0.0789	665.1	11.971	22.50	14.51	1.64
	69.20	26.78	73.74	-0.00	0.0673	11.73	516.3	396.76	0.0804	679.5	12.232	22.98	14.85	1.64
	70.20	26.76	73.75	0.00	0.0674	11.74	516.5	396.93	0.0804	680.4	12.248	23.01	14.87	1.64
	71.28	26.75	73.72	0.00	0.0675	11.76	517.5	397.82	0.0801	679.6	12.233	22.99	14.85	1.64
	72.20	26.78	73.72	0.00	0.0675	11.76	517.5	397.83	0.0794	672.5	12.105	22.75	14.69	1.65
	73.21	26.76	73.74	0.00	0.0675	11.78	518.3	398.31	0.0789	663.8	11.948	22.44	14.48	1.64
	74.21	26.76	73.72	-0.00	0.0675	11.77	517.7	398.01	0.0798	672.8	12.111	22.76	14.69	1.64
	75.21	26.76	73.74	0.00	0.0676	11.78	518.1	398.14	0.0799	678.5	12.214	22.94	14.82	1.64
	76.19	26.77	73.77	0.00	0.0677	11.80	519.2	398.87	0.0795	674.7	12.145	22.81	14.74	1.64
	77.22	26.78	73.77	0.00	0.0678	11.82	520.0	399.45	0.0789	664.9	11.969	22.48	14.51	1.64
	78.28	26.78	73.72	0.00	0.0677	11.81	519.6	399.47	0.0793	669.7	12.055	22.65	14.62	1.65
	79.20	26.80	73.72	0.00	0.0677	11.82	520.0	399.76	0.0790	665.6	11.980	22.52	14.53	1.64
	80.20	26.79	73.74	-0.00	0.0677	11.81	519.6	399.34	0.0790	666.0	11.989	22.52	14.54	1.64
	81.20	26.80	73.72	0.00	0.0677	11.80	519.0	399.04	0.0796	672.0	12.095	22.73	14.67	1.64
	82.29	26.80	73.72	-0.00	0.0677	11.79	518.8	398.84	0.0794	670.6	12.071	22.69	14.64	1.64
	83.21	26.81	73.75	-0.00	0.0675	11.79	518.9	398.86	0.0800	673.3	12.119	22.77	14.70	1.64
	84.21	26.79	73.72	-0.00	0.0676	11.80	519.0	399.04	0.0802	676.1	12.169	22.87	14.77	1.65
	85.27	26.81	73.74	0.00	0.0675	11.77	517.8	397.95	0.0804	684.3	12.318	23.14	14.96	1.65
	86.21	26.81	73.74	-0.00	0.0676	11.78	518.5	398.53	0.0799	676.8	12.182	22.89	14.78	1.64
	87.20	26.81	73.72	0.00	0.0676	11.78	518.2	398.44	0.0801	677.9	12.202	22.93	14.81	1.64
	88.19	26.81	73.72	0.00	0.0675	11.78	518.2	398.44	0.0803	682.2	12.280	23.08	14.91	1.64
	89.20	26.84	73.77	0.00	0.0677	11.78	518.5	398.42	0.0800	679.7	12.234	22.98	14.85	1.64
	90.18	26.83	73.72	0.00	0.0675	11.78	518.4	398.56	0.0807	686.5	12.356	23.22	15.01	1.65
	91.20	26.83	73.72	0.00	0.0675	11.76	517.3	397.79	0.0805	690.2	12.423	23.35	15.09	1.64
	92.20	26.83	73.72	0.00	0.0673	11.77	517.7	398.05	0.0818	692.7	12.468	23.43	15.15	1.64
	93.19	26.85	73.72	0.00	0.0673	11.67	513.4	394.77	0.0816	709.0	12.762	23.99	15.51	1.64
	94.19	26.89	73.75	0.00	0.0669	11.65	512.4	393.94	0.0828	712.1	12.818	24.09	15.58	1.65
	95.19	26.83	73.72	0.00	0.0672	11.68	513.7	395.02	0.0821	707.0	12.726	23.92	15.46	1.65
	96.19	26.83	73.72	-0.00	0.0675	11.74	516.5	397.13	0.0813	699.3	12.588	23.66	15.29	1.65
	97.27	26.83	73.75	0.00	0.0673	11.71	515.4	396.16	0.0819	701.9	12.634	23.74	15.35	1.64
	98.20	26.85	73.72	-0.00	0.0673	11.73	516.1	396.83	0.0821	703.8	12.668	23.81	15.40	1.64
	99.20	26.89	73.72	-0.00	0.0673	11.72	515.7	396.58	0.0820	704.1	12.674	23.82	15.40	1.64
	100.18	26.85	73.72	-0.00	0.0673	11.72	515.6	396.45	0.0819	701.8	12.632	23.74	15.35	1.64
	101.28	26.87	73.74	0.00	0.0674	11.76	517.2	397.62	0.0815	695.3	12.515	23.52	15.21	1.65
	102.20	26.89	73.72	0.00	0.0674	11.75	517.0	397.58	0.0814	697.0	12.546	23.59	15.25	1.65
	103.21	26.89	73.74	0.00	0.0672	11.70	514.6	395.62	0.0816	699.3	12.587	23.65	15.30	1.65
	104.21	26.91	73.72	-0.00	0.0672	11.69	514.5	395.68	0.0820	703.9	12.671	23.82	15.40	1.65
	105.21	26.87	73.72	0.00	0.0671	11.68	514.0	395.25	0.0821	704.9	12.688	23.85	15.42	1.64
	106.19	26.88	73.72	0.00	0.0674	11.74	516.4	397.13	0.0814	695.0	12.510	23.52	15.20	1.64
	107.20	26.85	73.74	0.00	0.0673	11.72	515.5	396.28	0.0819	702.4	12.644	23.76	15.36	1.65
	108.20	26.89	73.69	0.00	0.0672	11.71	515.2	396.36	0.0826	710.5	12.788	24.05	15.54	1.65
	109.22	26.86	73.72	-0.00	0.0674	11.72	515.6	396.49	0.0818	703.5	12.662	23.80	15.39	1.65
	110.20	26.91	73.72	0.00	0.0673	11.72	515.6	396.53	0.0821	704.6	12.683	23.85	15.42	1.65
	111.20	26.91	73.72	0.00	0.0673	11.74	516.4	397.19	0.0825	705.3	12.696	23.87	15.43	1.65
	112.20	26.89	73.72	0.00	0.0675	11.78	518.2	398.51	0.0818	696.1	12.530	23.55	15.23	1.65
	113.19	26.91	73.72	0.00	0.0676	11.80	519.3	399.42	0.0811	691.3	12.443	23.39	15.12	1.65
	114.19	26.90	73.72	0.00	0.0672	11.72	515.6	396.56	0.0823	707.4	12.733	23.94	15.48	1.65
	115.21	26.90	73.72	-0.00	0.0674	11.72	515.7	396.62	0.0823	708.4	12.752	23.97	15.50	1.65
	116.19	26.90	73.69	0.00	0.0674	11.75	517.0	397.77	0.0820	702.8	12.651	23.79	15.38	1.65
	117.20	26.92	73.72	0.00	0.0674	11.73	516.2	397.02	0.0825	708.7	12.757	23.99	15.51	1.65
	118.19	26.91	73.72	0.00	0.0672	11.71	515.3	396.28	0.0827	710.8	12.795	24.05	15.55	1.65
	119.28	26.93	73.72	-0.00	0.0670	11.65	512.5	394.23	0.0836	724.3	13.038	24.51	15.85	1.65
	120.18	26.92	73.69	0.00	0.0670	11.65	512.8	394.53	0.0835	723.8	13.029	24.50	15.84	1.65
