Jul 23 2015 at 11:47:51
Frequency: 1.00Hz.
CO2
Zero:  Value:0.95  Date:18 Mar 2005	 at 07:22:33	
Span:  Value:1.00  Date:18 Mar 2005	 at 07:25:09	
H2O
Zero:  Value:0.71  Date:18 Mar 2005	 at 07:52:31	
Span:  Value:0.99  Date:18 Mar 2005	 at 11:44:01	
	Relative Time	Temperature	Pressure	Aux Input	CO2 Absorptance	CO2 mmol/m3	CO2 mg/m3	CO2 umol/mol	H2O Absorptance	H2O mmol/m3	H2O g/m3	H2O mmol/mol	H2O(°C)	Cooler Voltage
	0.94	33.55	73.77	-0.00	0.0668	11.61	510.8	401.26	0.0698	554.3	9.977	19.16	12.06	1.76
	1.93	33.50	73.75	0.00	0.0668	11.62	511.4	401.80	0.0701	555.4	9.997	19.20	12.09	1.76
	2.95	33.55	73.77	-0.00	0.0668	11.61	510.9	401.34	0.0703	560.5	10.089	19.37	12.23	1.76
	3.93	33.52	73.77	0.00	0.0668	11.60	510.6	401.07	0.0703	560.9	10.097	19.39	12.24	1.76
	5.01	33.52	73.77	0.00	0.0668	11.61	510.7	401.18	0.0706	560.8	10.094	19.38	12.24	1.76
	5.93	33.55	73.77	0.00	0.0669	11.62	511.4	401.76	0.0706	564.0	10.153	19.50	12.33	1.76
	6.94	33.54	73.74	0.00	0.0669	11.63	511.7	402.11	0.0701	558.1	10.047	19.30	12.17	1.76
	7.94	33.57	73.74	0.00	0.0668	11.61	510.7	401.32	0.0693	548.4	9.871	18.96	11.90	1.76
	8.95	33.55	73.74	-0.00	0.0670	11.64	512.0	402.36	0.0689	543.3	9.779	18.78	11.76	1.76
	9.97	33.57	73.74	0.00	0.0670	11.64	512.4	402.69	0.0688	543.0	9.774	18.78	11.75	1.76
	10.95	33.57	73.72	-0.00	0.0671	11.67	513.6	403.79	0.0688	541.9	9.755	18.75	11.72	1.76
	11.96	33.52	73.77	-0.00	0.0670	11.65	512.6	402.65	0.0685	539.6	9.712	18.65	11.65	1.77
	12.95	33.55	73.77	-0.00	0.0671	11.68	514.1	403.88	0.0681	535.3	9.635	18.50	11.53	1.76
	13.96	33.55	73.74	-0.00	0.0671	11.67	513.6	403.58	0.0678	531.4	9.565	18.37	11.42	1.76
	14.95	33.50	73.77	0.00	0.0670	11.66	513.1	403.01	0.0678	532.0	9.576	18.38	11.44	1.76
	15.94	33.50	73.82	0.00	0.0670	11.65	512.4	402.21	0.0664	516.7	9.301	17.85	11.00	1.76
	16.96	33.47	73.74	-0.00	0.0671	11.66	512.8	402.92	0.0658	510.2	9.184	17.64	10.81	1.76
	17.94	33.47	73.72	0.00	0.0670	11.66	513.1	403.28	0.0663	513.8	9.248	17.77	10.91	1.76
	18.94	33.50	73.77	0.00	0.0671	11.67	513.3	403.16	0.0664	516.0	9.288	17.83	10.98	1.77
	19.97	33.47	73.77	-0.00	0.0667	11.60	510.4	400.85	0.0660	515.1	9.272	17.80	10.95	1.76
	20.93	33.47	73.72	0.00	0.0669	11.62	511.3	401.84	0.0660	510.6	9.192	17.66	10.82	1.76
	21.95	33.50	73.77	0.00	0.0671	11.66	512.9	402.83	0.0662	512.8	9.231	17.72	10.88	1.76
	22.93	33.46	73.77	0.00	0.0670	11.65	512.7	402.65	0.0661	512.3	9.222	17.70	10.87	1.77
	23.95	33.45	73.74	0.00	0.0670	11.66	512.9	402.93	0.0660	511.9	9.214	17.69	10.85	1.77
	24.96	33.48	73.77	0.00	0.0671	11.68	513.8	403.52	0.0660	513.3	9.240	17.74	10.90	1.76
	25.94	33.50	73.77	-0.00	0.0670	11.65	512.4	402.45	0.0661	514.0	9.252	17.76	10.92	1.76
	26.96	33.47	73.77	-0.00	0.0669	11.63	511.7	401.87	0.0658	508.0	9.144	17.56	10.74	1.77
	27.94	33.48	73.80	0.00	0.0669	11.63	511.6	401.64	0.0658	508.4	9.152	17.56	10.75	1.77
	28.94	33.48	73.75	0.00	0.0668	11.61	511.0	401.46	0.0656	507.1	9.128	17.53	10.71	1.77
	29.94	33.43	73.77	0.00	0.0671	11.67	513.5	403.21	0.0660	511.5	9.207	17.67	10.84	1.77
	30.93	33.50	73.77	0.00	0.0672	11.66	513.0	402.93	0.0661	509.2	9.165	17.60	10.78	1.77
	31.95	33.45	73.77	-0.00	0.0671	11.69	514.2	403.83	0.0660	511.8	9.213	17.69	10.85	1.77
	32.95	33.50	73.77	-0.00	0.0671	11.67	513.7	403.44	0.0660	511.2	9.202	17.67	10.84	1.77
	33.93	33.50	73.77	0.00	0.0670	11.65	512.8	402.80	0.0659	509.6	9.173	17.61	10.79	1.77
	34.94	33.50	73.74	-0.00	0.0670	11.65	512.6	402.80	0.0659	509.1	9.163	17.60	10.77	1.77
	35.93	33.50	73.77	0.00	0.0672	11.68	514.1	403.81	0.0661	511.7	9.210	17.68	10.85	1.77
	36.94	33.47	73.77	0.00	0.0671	11.67	513.5	403.26	0.0659	510.2	9.183	17.63	10.81	1.77
	37.95	33.50	73.74	-0.00	0.0671	11.67	513.5	403.45	0.0659	510.6	9.190	17.65	10.82	1.77
	38.97	33.45	73.74	-0.00	0.0670	11.66	513.0	403.05	0.0658	509.1	9.163	17.60	10.77	1.77
	39.94	33.45	73.77	0.00	0.0671	11.68	513.7	403.46	0.0659	510.0	9.180	17.62	10.80	1.77
	40.95	33.47	73.74	0.00	0.0669	11.65	512.6	402.73	0.0655	508.4	9.152	17.58	10.75	1.77
	41.93	33.45	73.77	0.00	0.0671	11.67	513.4	403.22	0.0658	510.1	9.181	17.63	10.80	1.77
	42.95	33.44	73.77	0.00	0.0671	11.65	512.7	402.64	0.0658	508.6	9.154	17.57	10.76	1.77
	43.96	33.45	73.77	-0.00	0.0671	11.66	513.2	403.06	0.0658	509.1	9.164	17.59	10.77	1.77
	44.94	33.43	73.75	-0.00	0.0669	11.63	511.7	401.96	0.0656	506.2	9.111	17.50	10.68	1.77
	45.96	33.43	73.74	-0.00	0.0669	11.64	512.3	402.41	0.0655	507.1	9.129	17.53	10.71	1.77
	46.94	33.48	73.77	0.00	0.0669	11.64	512.2	402.30	0.0656	507.6	9.136	17.54	10.73	1.77
	47.95	33.43	73.74	-0.00	0.0670	11.66	512.8	402.87	0.0657	508.3	9.150	17.57	10.75	1.77
	48.94	33.45	73.77	0.00	0.0671	11.65	512.7	402.63	0.0658	507.9	9.142	17.55	10.74	1.77
	49.95	33.46	73.77	-0.00	0.0671	11.67	513.7	403.40	0.0658	508.7	9.157	17.58	10.76	1.77
	50.95	33.43	73.80	0.00	0.0668	11.65	512.4	402.24	0.0653	506.3	9.113	17.49	10.69	1.77
	51.93	33.44	73.74	0.00	0.0668	11.63	511.5	401.83	0.0652	503.1	9.056	17.39	10.59	1.77
	52.95	33.44	73.74	-0.00	0.0667	11.61	510.7	401.18	0.0650	501.5	9.027	17.33	10.55	1.77
	53.93	33.40	73.74	0.00	0.0670	11.65	512.5	402.57	0.0655	504.5	9.081	17.44	10.63	1.77
	54.93	33.43	73.77	0.00	0.0672	11.69	514.2	403.79	0.0658	508.2	9.148	17.56	10.75	1.77
	55.94	33.45	73.77	0.00	0.0671	11.68	514.0	403.68	0.0656	508.0	9.145	17.56	10.74	1.77
	56.92	33.48	73.77	0.00	0.0672	11.71	515.1	404.59	0.0657	507.9	9.142	17.55	10.74	1.77
	57.94	33.45	73.77	0.00	0.0672	11.71	515.1	404.50	0.0655	507.6	9.136	17.54	10.73	1.78
	59.00	33.55	73.74	0.00	0.0672	11.68	514.0	403.97	0.0653	504.2	9.075	17.43	10.63	1.78
	59.94	33.50	73.77	0.00	0.0671	11.69	514.2	403.87	0.0654	504.4	9.079	17.43	10.64	1.77
	60.95	33.51	73.74	-0.00	0.0669	11.64	512.3	402.56	0.0650	500.8	9.014	17.31	10.53	1.77
	61.93	33.50	73.77	0.00	0.0672	11.71	515.2	404.65	0.0655	505.1	9.092	17.46	10.66	1.77
	62.95	33.52	73.77	-0.00	0.0670	11.65	512.8	402.81	0.0650	499.7	8.994	17.27	10.49	1.77
	63.95	33.49	73.74	-0.00	0.0671	11.67	513.5	403.44	0.0651	501.5	9.027	17.34	10.55	1.78
	64.94	33.48	73.80	-0.00	0.0670	11.66	513.2	402.90	0.0651	501.4	9.024	17.32	10.54	1.78
	65.96	33.47	73.74	-0.00	0.0669	11.63	511.6	401.95	0.0650	499.5	8.991	17.27	10.49	1.77
	66.94	33.50	73.80	0.00	0.0668	11.61	510.8	401.08	0.0648	497.5	8.954	17.19	10.43	1.78
	68.03	33.47	73.74	-0.00	0.0671	11.66	513.0	403.06	0.0652	501.3	9.023	17.33	10.54	1.78
	68.95	33.47	73.77	0.00	0.0670	11.64	512.2	402.26	0.0650	498.8	8.979	17.24	10.47	1.78
	69.95	33.51	73.77	0.00	0.0668	11.59	510.2	400.72	0.0646	496.0	8.928	17.14	10.39	1.78
	70.95	33.52	73.77	-0.00	0.0668	11.61	510.9	401.27	0.0647	497.0	8.947	17.18	10.42	1.78
	71.95	33.52	73.74	0.00	0.0668	11.62	511.3	401.76	0.0646	496.4	8.934	17.16	10.40	1.78
	72.95	33.57	73.77	0.00	0.0668	11.61	510.7	401.20	0.0645	495.3	8.915	17.12	10.36	1.78
	73.94	33.57	73.77	0.00	0.0669	11.62	511.4	401.76	0.0648	496.5	8.937	17.16	10.40	1.78
	74.96	33.56	73.77	0.00	0.0669	11.63	511.7	402.02	0.0649	497.9	8.963	17.21	10.45	1.78
	76.03	33.53	73.80	-0.00	0.0670	11.66	512.9	402.77	0.0648	499.2	8.985	17.25	10.48	1.78
	76.95	33.52	73.74	-0.00	0.0669	11.64	512.3	402.52	0.0646	496.3	8.933	17.16	10.39	1.78
	77.94	33.56	73.77	0.00	0.0672	11.68	514.0	403.79	0.0646	496.0	8.928	17.15	10.39	1.78
	78.94	33.56	73.74	0.00	0.0672	11.70	514.8	404.60	0.0650	498.9	8.980	17.25	10.47	1.78
	79.95	33.54	73.77	-0.00	0.0673	11.71	515.3	404.83	0.0650	498.6	8.975	17.23	10.46	1.78
	80.93	33.56	73.77	0.00	0.0668	11.63	511.5	401.86	0.0636	485.9	8.747	16.80	10.08	1.78
	81.95	33.54	73.77	-0.00	0.0669	11.65	512.5	402.57	0.0637	487.7	8.778	16.86	10.13	1.78
	82.95	33.54	73.72	-0.00	0.0671	11.68	513.8	403.87	0.0642	490.7	8.832	16.97	10.22	1.78
	83.94	33.61	73.77	-0.00	0.0671	11.68	513.9	403.81	0.0641	491.2	8.841	16.98	10.24	1.78
	84.93	33.58	73.77	0.00	0.0670	11.69	514.2	403.96	0.0638	488.6	8.794	16.89	10.16	1.78
	85.94	33.57	73.77	-0.00	0.0671	11.63	511.8	402.05	0.0638	484.3	8.718	16.74	10.03	1.78
	86.95	33.59	73.77	-0.00	0.0670	11.66	513.0	403.06	0.0638	486.2	8.751	16.81	10.09	1.78
	87.94	33.57	73.74	-0.00	0.0669	11.62	511.1	401.71	0.0635	484.0	8.712	16.74	10.02	1.78
	88.95	33.56	73.74	-0.00	0.0669	11.62	511.5	401.94	0.0637	485.1	8.732	16.78	10.06	1.78
	89.93	33.54	73.74	0.00	0.0670	11.67	513.3	403.36	0.0637	486.9	8.764	16.83	10.11	1.78
	90.95	33.54	73.75	-0.00	0.0668	11.60	510.2	400.91	0.0634	481.2	8.662	16.64	9.93	1.78
	91.95	33.59	73.74	-0.00	0.0666	11.57	508.9	399.99	0.0630	478.9	8.620	16.56	9.86	1.78
	92.94	33.61	73.75	-0.00	0.0669	11.62	511.1	401.72	0.0634	481.7	8.670	16.66	9.95	1.78
	93.94	33.61	73.74	-0.00	0.0670	11.65	512.6	402.94	0.0637	484.8	8.727	16.77	10.05	1.78
	94.94	33.52	73.77	0.00	0.0670	11.67	513.3	403.21	0.0636	486.9	8.764	16.83	10.11	1.78
	95.94	33.52	73.77	0.00	0.0669	11.62	511.4	401.74	0.0635	483.6	8.704	16.71	10.01	1.78
	96.95	33.53	73.77	0.00	0.0668	11.62	511.1	401.46	0.0635	482.8	8.691	16.69	9.98	1.78
	97.94	33.54	73.74	0.00	0.0669	11.61	511.0	401.57	0.0634	482.1	8.678	16.67	9.96	1.78
	98.95	33.52	73.74	0.00	0.0670	11.65	512.6	402.82	0.0635	484.6	8.723	16.76	10.04	1.78
	99.93	33.52	73.77	0.00	0.0668	11.61	510.9	401.30	0.0633	481.8	8.673	16.65	9.95	1.78
	100.95	33.52	73.80	-0.00	0.0669	11.62	511.4	401.56	0.0632	481.9	8.674	16.65	9.95	1.78
	101.96	33.52	73.77	-0.00	0.0668	11.62	511.4	401.68	0.0631	480.4	8.647	16.60	9.91	1.78
	102.94	33.50	73.72	0.00	0.0669	11.63	511.5	402.06	0.0632	480.0	8.641	16.60	9.89	1.78
	103.94	33.55	73.77	0.00	0.0670	11.65	512.7	402.75	0.0635	482.9	8.692	16.69	9.99	1.79
	104.94	33.55	73.77	0.00	0.0671	11.66	513.0	403.01	0.0634	483.4	8.702	16.71	10.00	1.79
	105.94	33.55	73.77	0.00	0.0670	11.68	513.8	403.66	0.0634	484.4	8.718	16.74	10.03	1.79
	107.02	33.50	73.77	0.00	0.0672	11.69	514.1	403.84	0.0636	484.4	8.719	16.74	10.03	1.79
	107.94	33.55	73.77	0.00	0.0670	11.67	513.6	403.45	0.0633	483.1	8.696	16.70	9.99	1.79
	108.94	33.57	73.77	0.00	0.0670	11.66	512.9	402.98	0.0634	482.4	8.684	16.68	9.97	1.79
	109.93	33.59	73.77	0.00	0.0669	11.63	511.8	402.09	0.0632	481.2	8.662	16.64	9.94	1.79
	110.95	33.59	73.74	-0.00	0.0668	11.63	511.7	402.20	0.0631	481.4	8.666	16.65	9.94	1.79
	111.93	33.60	73.77	0.00	0.0668	11.62	511.5	401.89	0.0632	481.2	8.661	16.64	9.94	1.79
	112.94	33.55	73.77	-0.00	0.0669	11.63	511.6	401.90	0.0633	480.8	8.654	16.62	9.92	1.79
	113.94	33.54	73.77	-0.00	0.0669	11.65	512.6	402.70	0.0633	483.2	8.698	16.70	9.99	1.79
	114.94	33.52	73.77	0.00	0.0669	11.62	511.1	401.47	0.0633	480.7	8.652	16.61	9.92	1.79
	116.02	33.55	73.77	-0.00	0.0670	11.62	511.5	401.81	0.0633	480.9	8.657	16.62	9.93	1.79
	116.92	33.52	73.77	0.00	0.0670	11.66	513.0	402.97	0.0634	483.8	8.708	16.72	10.01	1.79
	117.94	33.54	73.77	0.00	0.0669	11.62	511.4	401.74	0.0633	481.4	8.666	16.64	9.94	1.79
	118.95	33.52	73.74	-0.00	0.0670	11.64	512.2	402.51	0.0635	481.9	8.675	16.66	9.95	1.79
	119.93	33.52	73.77	0.00	0.0670	11.66	512.9	402.90	0.0635	483.0	8.695	16.69	9.99	1.79
	120.93	33.56	73.74	0.00	0.0670	11.65	512.7	402.93	0.0634	482.7	8.689	16.69	9.98	1.79
	121.93	33.62	73.77	-0.00	0.0673	11.71	515.3	404.88	0.0637	486.5	8.757	16.82	10.10	1.79
