Jul 23 2015 at 10:22:08
Frequency: 1.00Hz.
CO2
Zero:  Value:0.95  Date:18 Mar 2005	 at 07:22:33	
Span:  Value:1.00  Date:18 Mar 2005	 at 07:25:09	
H2O
Zero:  Value:0.71  Date:18 Mar 2005	 at 07:52:31	
Span:  Value:0.99  Date:18 Mar 2005	 at 11:44:01	
	Relative Time	Temperature	Pressure	Aux Input	CO2 Absorptance	CO2 mmol/m3	CO2 mg/m3	CO2 umol/mol	H2O Absorptance	H2O mmol/m3	H2O g/m3	H2O mmol/mol	H2O(°C)	Cooler Voltage
	0.05	30.31	73.74	-0.00	0.0636	10.87	478.1	371.73	0.0832	726.9	13.083	24.87	16.08	1.67
	1.03	30.28	73.77	0.00	0.0639	10.97	482.6	375.11	0.0816	702.4	12.644	24.02	15.54	1.67
	1.98	30.28	73.77	-0.00	0.0638	10.96	482.3	374.86	0.0829	705.9	12.705	24.14	15.62	1.68
	2.96	30.30	73.75	-0.00	0.0633	10.84	477.2	371.01	0.0854	748.2	13.467	25.60	16.53	1.67
	3.96	30.28	73.74	0.00	0.0632	10.80	475.4	369.58	0.0857	753.6	13.565	25.78	16.64	1.67
	4.96	30.27	73.72	-0.00	0.0632	10.83	476.3	370.44	0.0853	744.5	13.401	25.48	16.45	1.68
	5.97	30.33	73.74	-0.00	0.0636	10.93	481.1	374.10	0.0842	722.9	13.013	24.73	15.99	1.67
	6.96	30.28	73.72	0.00	0.0634	10.87	478.3	371.96	0.0849	736.9	13.265	25.22	16.29	1.67
	7.97	30.27	73.77	0.00	0.0645	11.04	485.6	377.44	0.0801	692.1	12.457	23.67	15.31	1.68
	8.96	30.33	73.75	0.00	0.0645	11.12	489.4	380.54	0.0799	669.5	12.051	22.91	14.80	1.67
	9.95	30.30	73.74	0.00	0.0646	11.12	489.2	380.33	0.0797	676.3	12.174	23.14	14.95	1.67
	10.97	30.32	73.77	0.00	0.0648	11.14	490.1	380.99	0.0792	667.4	12.014	22.83	14.75	1.67
	12.03	30.30	73.72	0.00	0.0647	11.18	492.0	382.70	0.0791	658.2	11.848	22.53	14.53	1.67
	12.95	30.33	73.75	0.00	0.0647	11.12	489.5	380.60	0.0792	666.7	12.001	22.81	14.73	1.67
	13.96	30.30	73.77	0.00	0.0647	11.14	490.0	380.83	0.0791	666.6	11.998	22.80	14.73	1.68
	14.95	30.30	73.72	0.00	0.0648	11.11	488.8	380.16	0.0792	674.6	12.143	23.09	14.91	1.67
	15.96	30.30	73.74	0.00	0.0647	11.16	490.8	381.64	0.0791	665.0	11.971	22.75	14.69	1.67
	16.96	30.32	73.74	-0.00	0.0649	11.16	491.2	381.92	0.0785	662.8	11.930	22.68	14.64	1.67
	17.96	30.33	73.74	0.00	0.0647	11.16	490.9	381.72	0.0792	665.9	11.987	22.78	14.71	1.67
	18.95	30.34	73.74	-0.00	0.0647	11.15	490.6	381.50	0.0793	665.7	11.982	22.78	14.71	1.67
	19.97	30.34	73.74	-0.00	0.0645	11.10	488.2	379.67	0.0793	669.7	12.055	22.92	14.80	1.67
	20.95	30.34	73.74	0.00	0.0646	11.10	488.3	379.74	0.0789	667.3	12.011	22.83	14.75	1.67
	21.96	30.34	73.74	-0.00	0.0647	11.15	490.5	381.45	0.0796	671.1	12.080	22.96	14.84	1.67
	22.96	30.33	73.74	0.00	0.0649	11.18	491.9	382.48	0.0788	661.6	11.909	22.64	14.61	1.67
	23.98	30.34	73.74	-0.00	0.0647	11.13	489.8	380.87	0.0794	668.4	12.031	22.87	14.77	1.67
	24.96	30.33	73.75	0.00	0.0650	11.22	493.7	383.89	0.0781	655.8	11.805	22.44	14.48	1.68
	25.98	30.34	73.72	0.00	0.0650	11.19	492.4	383.06	0.0782	656.9	11.823	22.48	14.50	1.67
	26.96	30.34	73.74	0.00	0.0648	11.16	491.0	381.83	0.0787	661.4	11.904	22.63	14.61	1.67
	27.97	30.35	73.77	0.00	0.0648	11.17	491.4	382.02	0.0787	661.1	11.901	22.61	14.60	1.67
	28.97	30.38	73.77	-0.00	0.0649	11.18	491.8	382.38	0.0786	660.0	11.881	22.58	14.58	1.67
	29.97	30.36	73.72	0.00	0.0648	11.17	491.4	382.26	0.0786	659.8	11.877	22.59	14.57	1.67
	30.97	30.36	73.74	-0.00	0.0648	11.18	491.7	382.42	0.0785	659.5	11.871	22.57	14.57	1.68
	31.96	30.38	73.74	0.00	0.0648	11.17	491.5	382.27	0.0784	658.4	11.852	22.53	14.54	1.68
	32.95	30.36	73.74	0.00	0.0648	11.18	491.8	382.43	0.0784	657.8	11.841	22.51	14.53	1.67
	33.98	30.38	73.72	-0.00	0.0649	11.18	492.1	382.83	0.0785	659.1	11.863	22.56	14.56	1.67
	34.96	30.36	73.74	-0.00	0.0649	11.19	492.5	382.99	0.0785	659.3	11.867	22.56	14.56	1.67
	35.97	30.36	73.74	-0.00	0.0650	11.20	492.7	383.13	0.0785	658.7	11.857	22.54	14.55	1.67
	36.96	30.38	73.72	-0.00	0.0649	11.19	492.3	383.00	0.0785	659.0	11.863	22.56	14.56	1.68
	37.97	30.37	73.77	-0.00	0.0648	11.18	491.8	382.32	0.0785	658.2	11.847	22.51	14.54	1.67
	38.95	30.38	73.74	0.00	0.0650	11.20	492.7	383.22	0.0785	659.3	11.868	22.56	14.56	1.67
	39.95	30.38	73.72	0.00	0.0649	11.18	492.1	382.85	0.0785	659.1	11.865	22.56	14.56	1.67
	40.95	30.38	73.72	0.00	0.0650	11.20	492.8	383.40	0.0785	658.0	11.845	22.53	14.53	1.67
	41.95	30.38	73.74	0.00	0.0648	11.17	491.7	382.39	0.0784	657.5	11.835	22.50	14.52	1.67
	42.96	30.42	73.77	-0.00	0.0648	11.16	491.0	381.78	0.0785	659.4	11.869	22.56	14.57	1.68
	43.96	30.40	73.74	0.00	0.0649	11.17	491.5	382.28	0.0786	659.8	11.876	22.58	14.58	1.67
	44.94	30.45	73.74	0.00	0.0649	11.18	491.9	382.63	0.0785	659.2	11.865	22.56	14.56	1.67
	45.96	30.40	73.74	0.00	0.0648	11.17	491.7	382.43	0.0785	659.3	11.867	22.56	14.56	1.67
	46.94	30.42	73.74	0.00	0.0648	11.16	491.1	382.01	0.0785	659.4	11.870	22.57	14.57	1.67
	47.97	30.40	73.77	0.00	0.0649	11.19	492.4	382.85	0.0786	660.4	11.887	22.59	14.59	1.68
	48.95	30.40	73.75	0.00	0.0648	11.16	490.9	381.84	0.0790	663.8	11.948	22.72	14.67	1.68
	49.95	30.42	73.72	-0.00	0.0647	11.16	491.0	382.01	0.0790	665.2	11.974	22.77	14.70	1.67
	50.97	30.42	73.80	-0.00	0.0649	11.17	491.4	381.95	0.0787	662.6	11.927	22.66	14.64	1.68
	51.98	30.42	73.74	-0.00	0.0648	11.17	491.4	382.19	0.0787	661.7	11.910	22.65	14.62	1.67
	52.96	30.42	73.74	-0.00	0.0649	11.18	491.9	382.63	0.0789	663.5	11.943	22.71	14.66	1.67
	53.98	30.43	73.74	0.00	0.0648	11.18	491.9	382.66	0.0787	661.1	11.899	22.63	14.61	1.68
	54.96	30.42	73.69	0.00	0.0648	11.17	491.6	382.63	0.0786	661.3	11.903	22.65	14.61	1.68
	55.96	30.44	73.75	0.00	0.0649	11.18	491.9	382.64	0.0787	661.7	11.910	22.65	14.62	1.67
	56.97	30.42	73.77	0.00	0.0648	11.16	491.0	381.81	0.0786	659.8	11.877	22.58	14.58	1.67
	58.03	30.44	73.69	0.00	0.0648	11.16	491.1	382.30	0.0787	660.4	11.888	22.62	14.59	1.67
	58.95	30.48	73.77	0.00	0.0649	11.18	492.1	382.68	0.0791	665.3	11.976	22.77	14.71	1.67
	59.97	30.48	73.72	0.00	0.0647	11.15	490.6	381.84	0.0788	662.4	11.924	22.68	14.64	1.67
	60.95	30.48	73.80	0.00	0.0648	11.17	491.3	381.95	0.0789	663.1	11.937	22.68	14.66	1.68
	61.98	30.45	73.74	-0.00	0.0647	11.16	490.9	381.84	0.0791	666.5	11.997	22.81	14.73	1.67
	62.96	30.46	73.74	-0.00	0.0647	11.14	490.1	381.25	0.0796	671.7	12.090	22.99	14.85	1.67
	63.98	30.46	73.77	-0.00	0.0645	11.11	488.9	380.21	0.0795	671.7	12.091	22.98	14.86	1.67
	64.94	30.50	73.77	0.00	0.0645	11.10	488.5	379.94	0.0793	668.9	12.040	22.89	14.79	1.67
	65.97	30.44	73.77	-0.00	0.0646	11.13	489.9	380.99	0.0793	668.7	12.037	22.88	14.79	1.67
	66.96	30.47	73.74	0.00	0.0647	11.14	490.0	381.24	0.0793	671.6	12.088	22.99	14.85	1.68
	67.94	30.46	73.72	0.00	0.0648	11.15	490.6	381.80	0.0795	671.6	12.089	23.00	14.85	1.67
	68.95	30.48	73.74	0.00	0.0648	11.17	491.4	382.29	0.0796	672.3	12.102	23.01	14.87	1.67
	69.94	30.48	73.74	0.00	0.0648	11.15	490.8	381.81	0.0795	670.9	12.076	22.97	14.84	1.67
	70.97	30.50	73.77	-0.00	0.0646	11.12	489.4	380.64	0.0796	672.4	12.104	23.01	14.87	1.67
	71.95	30.46	73.72	-0.00	0.0646	11.12	489.3	380.75	0.0794	670.6	12.071	22.96	14.83	1.67
	72.96	30.48	73.77	0.00	0.0648	11.14	489.9	381.04	0.0796	673.3	12.119	23.04	14.89	1.68
	73.94	30.50	73.77	0.00	0.0648	11.16	490.9	381.78	0.0795	670.9	12.077	22.96	14.84	1.67
	74.96	30.50	73.74	0.00	0.0649	11.18	491.9	382.75	0.0792	669.2	12.045	22.91	14.80	1.67
	75.96	30.50	73.80	-0.00	0.0648	11.16	490.9	381.68	0.0795	670.4	12.068	22.93	14.83	1.67
	76.97	30.48	73.77	-0.00	0.0647	11.14	490.2	381.25	0.0794	670.6	12.071	22.95	14.83	1.67
	77.95	30.46	73.74	0.00	0.0647	11.14	490.0	381.20	0.0797	673.2	12.117	23.04	14.89	1.68
	78.95	30.48	73.77	0.00	0.0647	11.14	490.1	381.15	0.0797	674.7	12.145	23.09	14.93	1.67
	79.97	30.50	73.72	-0.00	0.0647	11.13	489.9	381.26	0.0798	675.4	12.157	23.13	14.94	1.67
	81.03	30.48	73.74	0.00	0.0646	11.13	489.8	381.02	0.0796	672.7	12.109	23.03	14.88	1.67
	81.95	30.50	73.74	0.00	0.0645	11.12	489.4	380.76	0.0798	674.1	12.133	23.08	14.91	1.67
	82.96	30.50	73.75	0.00	0.0646	11.13	489.9	381.13	0.0799	675.6	12.162	23.13	14.95	1.67
	83.98	30.48	73.74	0.00	0.0645	11.08	487.6	379.36	0.0799	674.7	12.145	23.10	14.93	1.68
	85.04	30.50	73.74	-0.00	0.0647	11.13	489.7	380.98	0.0800	678.3	12.209	23.22	15.01	1.67
	85.97	30.52	73.72	-0.00	0.0647	11.14	490.3	381.67	0.0799	675.3	12.156	23.13	14.94	1.67
	86.95	30.50	73.74	0.00	0.0647	11.13	489.6	380.93	0.0800	678.1	12.205	23.21	15.00	1.67
	87.97	30.52	73.77	-0.00	0.0647	11.15	490.7	381.69	0.0798	675.3	12.155	23.11	14.94	1.67
	88.97	30.53	73.75	-0.00	0.0647	11.15	490.6	381.73	0.0798	674.4	12.140	23.09	14.92	1.67
	89.97	30.50	73.74	-0.00	0.0647	11.14	490.2	381.40	0.0799	675.7	12.163	23.13	14.95	1.67
	90.95	30.52	73.75	0.00	0.0647	11.15	490.4	381.57	0.0799	677.9	12.202	23.21	15.00	1.67
	91.96	30.52	73.77	-0.00	0.0646	11.13	489.6	380.80	0.0799	676.4	12.175	23.15	14.97	1.67
	92.95	30.52	73.74	0.00	0.0647	11.14	490.2	381.40	0.0801	679.3	12.228	23.26	15.03	1.68
	93.97	30.52	73.74	-0.00	0.0646	11.12	489.3	380.68	0.0799	677.3	12.192	23.19	14.99	1.68
	94.96	30.51	73.75	-0.00	0.0646	11.11	489.0	380.44	0.0798	675.6	12.161	23.13	14.95	1.68
	95.96	30.53	73.74	0.00	0.0646	11.13	489.6	380.97	0.0799	676.2	12.172	23.15	14.96	1.68
	97.02	30.53	73.74	0.00	0.0646	11.11	488.7	380.30	0.0800	677.1	12.188	23.18	14.98	1.67
	97.95	30.53	73.77	0.00	0.0644	11.07	487.2	378.97	0.0799	675.2	12.153	23.11	14.94	1.67
	98.95	30.53	73.74	0.00	0.0646	11.13	489.6	381.00	0.0803	681.2	12.261	23.32	15.08	1.67
	99.95	30.53	73.74	0.00	0.0646	11.11	488.9	380.43	0.0805	684.2	12.316	23.43	15.15	1.67
	100.96	30.55	73.77	-0.00	0.0645	11.09	488.1	379.72	0.0802	682.2	12.280	23.35	15.10	1.68
	101.96	30.53	73.75	-0.00	0.0645	11.08	487.5	379.36	0.0804	685.4	12.338	23.47	15.17	1.67
	102.94	30.55	73.74	0.00	0.0645	11.11	488.9	380.42	0.0805	684.3	12.317	23.43	15.15	1.67
	103.93	30.53	73.74	0.00	0.0644	11.09	487.9	379.68	0.0809	688.8	12.398	23.58	15.25	1.67
	104.96	30.55	73.72	-0.00	0.0644	11.07	487.1	379.19	0.0805	683.6	12.305	23.41	15.13	1.68
	105.96	30.55	73.75	0.00	0.0644	11.09	487.9	379.67	0.0809	689.1	12.404	23.59	15.26	1.68
	106.97	30.55	73.74	0.00	0.0646	11.12	489.3	380.74	0.0806	686.6	12.359	23.51	15.20	1.68
	107.95	30.55	73.74	0.00	0.0646	11.14	490.3	381.56	0.0804	682.8	12.290	23.38	15.11	1.67
	108.97	30.55	73.77	-0.00	0.0645	11.11	488.7	380.16	0.0807	685.5	12.338	23.46	15.18	1.68
	109.95	30.60	73.74	0.00	0.0646	11.11	488.8	380.41	0.0805	683.6	12.305	23.41	15.14	1.67
	110.95	30.56	73.74	0.00	0.0644	11.08	487.7	379.55	0.0812	691.5	12.447	23.68	15.31	1.67
	111.95	30.60	73.72	0.00	0.0641	11.02	485.0	377.63	0.0820	701.1	12.619	24.02	15.53	1.68
	112.96	30.61	73.74	0.00	0.0643	11.05	486.1	378.34	0.0815	695.5	12.519	23.82	15.41	1.68
	113.94	30.60	73.74	0.00	0.0643	11.04	485.9	378.17	0.0814	695.3	12.515	23.81	15.40	1.67
	114.96	30.59	73.74	0.00	0.0646	11.13	489.5	380.97	0.0808	687.8	12.380	23.55	15.23	1.68
	115.94	30.61	73.72	0.00	0.0645	11.09	487.8	379.81	0.0815	695.6	12.520	23.83	15.41	1.67
