Jul 23 2015 at 12:37:48
Frequency: 1.00Hz.
CO2
Zero:  Value:0.95  Date:18 Mar 2005	 at 07:22:33	
Span:  Value:1.00  Date:18 Mar 2005	 at 07:25:09	
H2O
Zero:  Value:0.71  Date:18 Mar 2005	 at 07:52:31	
Span:  Value:0.99  Date:18 Mar 2005	 at 11:44:01	
	Relative Time	Temperature	Pressure	Aux Input	CO2 Absorptance	CO2 mmol/m3	CO2 mg/m3	CO2 umol/mol	H2O Absorptance	H2O mmol/m3	H2O g/m3	H2O mmol/mol	H2O(°C)	Cooler Voltage
	0.78	38.95	73.77	0.00	0.0677	11.82	520.0	415.72	0.0533	379.9	6.838	13.36	6.71	1.72
	1.78	38.95	73.77	0.00	0.0677	11.81	519.7	415.48	0.0534	380.4	6.847	13.38	6.73	1.72
	2.79	38.96	73.77	0.00	0.0677	11.83	520.4	416.07	0.0535	380.9	6.856	13.40	6.75	1.72
	3.78	38.98	73.74	0.00	0.0679	11.83	520.5	416.27	0.0537	381.9	6.874	13.44	6.79	1.72
	4.79	38.95	73.74	-0.00	0.0677	11.82	520.1	415.90	0.0536	381.7	6.871	13.43	6.78	1.72
	5.79	38.94	73.77	-0.00	0.0677	11.82	520.2	415.82	0.0538	383.4	6.902	13.49	6.84	1.71
	6.77	38.87	73.74	0.00	0.0677	11.82	520.2	415.86	0.0535	380.5	6.849	13.38	6.73	1.71
	7.77	38.92	73.74	0.00	0.0677	11.81	519.8	415.61	0.0536	381.3	6.863	13.42	6.76	1.72
	8.78	38.90	73.77	0.00	0.0677	11.81	519.7	415.36	0.0535	380.5	6.849	13.38	6.73	1.72
	9.80	38.89	73.74	-0.00	0.0679	11.84	520.9	416.45	0.0536	381.9	6.873	13.43	6.78	1.71
	10.90	38.90	73.77	-0.00	0.0677	11.81	519.7	415.43	0.0534	381.0	6.857	13.40	6.75	1.71
	11.78	38.90	73.77	0.00	0.0681	11.89	523.3	418.29	0.0541	385.3	6.936	13.55	6.91	1.71
	12.79	38.92	73.74	0.00	0.0680	11.90	523.4	418.55	0.0540	386.4	6.955	13.59	6.95	1.72
	13.79	38.90	73.74	-0.00	0.0675	11.79	518.6	414.67	0.0537	383.1	6.895	13.48	6.83	1.72
	14.79	38.87	73.72	-0.00	0.0675	11.77	518.0	414.26	0.0538	384.0	6.911	13.51	6.86	1.71
	15.79	38.95	73.80	0.00	0.0677	11.79	518.7	414.53	0.0541	384.5	6.922	13.52	6.88	1.71
	16.79	39.00	73.77	0.00	0.0679	11.85	521.5	416.96	0.0545	388.6	6.995	13.67	7.04	1.71
	17.80	38.94	73.77	-0.00	0.0678	11.83	520.5	416.08	0.0541	386.7	6.960	13.60	6.96	1.71
	18.78	38.94	73.77	0.00	0.0679	11.84	520.8	416.33	0.0549	393.0	7.074	13.82	7.20	1.72
	19.80	38.88	73.77	-0.00	0.0677	11.79	518.9	414.69	0.0546	390.9	7.036	13.75	7.12	1.72
	20.80	38.92	73.77	0.00	0.0678	11.81	519.8	415.46	0.0545	388.9	7.001	13.68	7.05	1.71
	21.79	38.94	73.77	-0.00	0.0678	11.83	520.4	416.02	0.0547	391.4	7.046	13.77	7.14	1.71
	22.79	38.94	73.74	-0.00	0.0677	11.81	519.7	415.58	0.0549	392.6	7.068	13.82	7.19	1.71
	23.77	38.95	73.77	0.00	0.0678	11.85	521.6	416.94	0.0554	401.2	7.222	14.11	7.50	1.71
	24.79	38.95	73.77	0.00	0.0676	11.80	519.4	415.22	0.0549	394.7	7.105	13.88	7.27	1.72
	25.79	38.94	73.74	0.00	0.0677	11.79	518.8	414.90	0.0548	394.0	7.092	13.86	7.24	1.72
	26.77	38.93	73.77	0.00	0.0676	11.79	518.8	414.69	0.0547	393.5	7.084	13.84	7.22	1.72
	27.80	38.96	73.77	0.00	0.0674	11.75	517.2	413.48	0.0544	389.6	7.012	13.70	7.07	1.71
	28.78	38.98	73.72	-0.00	0.0675	11.77	518.0	414.38	0.0540	387.3	6.971	13.63	6.99	1.71
	29.78	38.98	73.74	0.00	0.0675	11.75	517.0	413.51	0.0539	384.7	6.924	13.54	6.89	1.71
	30.80	38.93	73.75	0.00	0.0674	11.74	516.5	412.98	0.0537	382.8	6.890	13.47	6.82	1.72
	31.79	38.98	73.77	-0.00	0.0674	11.75	517.1	413.44	0.0542	387.9	6.982	13.65	7.01	1.72
	32.79	38.95	73.74	-0.00	0.0674	11.75	517.0	413.40	0.0546	390.2	7.023	13.73	7.10	1.71
	33.77	38.94	73.72	0.00	0.0674	11.75	517.1	413.66	0.0549	394.8	7.106	13.89	7.27	1.72
	34.77	38.98	73.72	0.00	0.0675	11.75	517.1	413.72	0.0550	393.6	7.086	13.86	7.23	1.71
	35.77	38.94	73.77	0.00	0.0674	11.76	517.3	413.52	0.0545	391.7	7.051	13.78	7.15	1.71
	36.80	38.98	73.74	-0.00	0.0674	11.75	517.0	413.47	0.0547	394.2	7.096	13.87	7.25	1.72
	37.78	38.95	73.74	0.00	0.0674	11.73	516.0	412.67	0.0548	393.2	7.078	13.84	7.21	1.71
	38.78	38.94	73.75	0.00	0.0675	11.75	516.9	413.32	0.0556	398.9	7.180	14.03	7.42	1.71
	39.80	38.95	73.77	0.00	0.0674	11.75	516.9	413.23	0.0558	405.0	7.291	14.25	7.64	1.71
	40.80	38.92	73.74	-0.00	0.0674	11.74	516.5	412.97	0.0557	403.5	7.263	14.20	7.59	1.71
	41.85	38.98	73.74	0.00	0.0674	11.74	516.4	413.02	0.0558	402.7	7.249	14.17	7.56	1.71
	42.79	38.96	73.75	-0.00	0.0674	11.75	517.0	413.49	0.0562	408.3	7.350	14.37	7.76	1.71
	43.85	38.98	73.77	0.00	0.0674	11.73	515.9	412.48	0.0562	407.1	7.327	14.32	7.72	1.72
	44.80	38.98	73.74	-0.00	0.0674	11.75	517.1	413.56	0.0564	410.4	7.388	14.44	7.84	1.72
	45.79	38.98	73.74	-0.00	0.0674	11.74	516.7	413.26	0.0564	408.6	7.355	14.38	7.77	1.71
	46.78	38.98	73.74	0.00	0.0674	11.74	516.5	413.07	0.0571	414.9	7.468	14.60	8.00	1.71
	47.77	38.98	73.77	0.00	0.0672	11.70	515.0	411.70	0.0559	406.1	7.309	14.28	7.68	1.72
	48.78	38.94	73.74	0.00	0.0672	11.68	514.1	411.08	0.0552	398.1	7.166	14.01	7.39	1.72
	49.77	38.98	73.74	0.00	0.0671	11.68	514.0	411.07	0.0552	396.7	7.141	13.96	7.34	1.71
	50.79	38.99	73.77	-0.00	0.0671	11.67	513.6	410.67	0.0553	396.8	7.142	13.96	7.34	1.72
	51.78	39.02	73.74	0.00	0.0672	11.70	514.9	411.84	0.0560	406.0	7.309	14.29	7.68	1.72
	52.78	38.98	73.77	0.00	0.0671	11.69	514.3	411.18	0.0558	403.0	7.254	14.18	7.57	1.71
	53.77	39.05	73.77	0.00	0.0672	11.70	514.8	411.71	0.0562	406.6	7.319	14.31	7.70	1.72
	54.77	39.02	73.74	0.00	0.0670	11.67	513.4	410.67	0.0560	406.2	7.311	14.29	7.69	1.72
	55.79	39.02	73.74	-0.00	0.0671	11.69	514.4	411.44	0.0562	407.9	7.343	14.36	7.75	1.72
	56.86	39.08	73.80	0.00	0.0671	11.68	514.0	410.90	0.0561	408.1	7.347	14.36	7.76	1.72
	57.78	39.02	73.77	0.00	0.0669	11.64	512.4	409.69	0.0568	413.6	7.444	14.55	7.95	1.72
	58.78	39.06	73.77	0.00	0.0671	11.67	513.5	410.61	0.0565	409.9	7.378	14.42	7.82	1.72
	59.76	39.02	73.77	0.00	0.0671	11.68	513.8	410.86	0.0568	413.4	7.441	14.54	7.95	1.72
	60.78	39.02	73.77	0.00	0.0670	11.66	512.9	410.11	0.0568	413.5	7.443	14.55	7.95	1.72
	61.79	39.00	73.77	0.00	0.0671	11.67	513.5	410.57	0.0566	413.2	7.437	14.53	7.94	1.72
	62.79	39.00	73.80	0.00	0.0671	11.68	514.0	410.79	0.0564	410.4	7.387	14.43	7.84	1.72
	63.79	39.00	73.77	0.00	0.0670	11.67	513.5	410.52	0.0564	407.4	7.334	14.33	7.73	1.72
	64.79	38.96	73.74	-0.00	0.0670	11.66	513.2	410.40	0.0570	415.0	7.470	14.60	8.00	1.72
	65.79	39.00	73.77	0.00	0.0670	11.66	513.1	410.24	0.0571	415.0	7.470	14.60	8.00	1.72
	66.78	39.04	73.74	0.00	0.0670	11.66	512.9	410.30	0.0575	420.4	7.567	14.80	8.19	1.72
	67.80	38.96	73.77	-0.00	0.0668	11.62	511.1	408.60	0.0573	418.1	7.525	14.71	8.11	1.72
	68.78	39.04	73.74	0.00	0.0669	11.62	511.3	409.00	0.0574	418.3	7.530	14.72	8.12	1.72
	69.78	39.08	73.74	0.00	0.0669	11.62	511.4	409.15	0.0577	422.2	7.599	14.86	8.26	1.72
	70.79	39.12	73.77	-0.00	0.0668	11.62	511.4	409.07	0.0578	424.1	7.633	14.92	8.33	1.72
	71.78	39.17	73.77	0.00	0.0669	11.63	511.8	409.39	0.0579	425.3	7.656	14.97	8.37	1.72
	72.78	39.16	73.74	0.00	0.0670	11.64	512.2	409.87	0.0583	429.1	7.724	15.11	8.50	1.72
	73.79	39.24	73.82	-0.00	0.0669	11.63	511.7	409.17	0.0582	427.4	7.693	15.04	8.45	1.72
	74.77	39.17	73.80	0.00	0.0668	11.60	510.4	408.19	0.0578	422.5	7.606	14.87	8.28	1.72
	75.80	39.16	73.77	-0.00	0.0669	11.62	511.5	409.14	0.0581	427.5	7.695	15.05	8.45	1.72
	76.78	39.14	73.74	-0.00	0.0668	11.62	511.3	409.16	0.0582	426.8	7.681	15.03	8.42	1.72
	77.78	39.12	73.80	0.00	0.0669	11.63	511.9	409.27	0.0581	428.0	7.703	15.06	8.46	1.72
	78.77	39.12	73.77	0.00	0.0669	11.63	511.8	409.38	0.0587	430.9	7.757	15.17	8.56	1.72
	79.78	39.12	73.74	0.00	0.0669	11.63	511.8	409.54	0.0591	437.2	7.870	15.39	8.78	1.72
	80.78	39.12	73.77	-0.00	0.0669	11.63	511.7	409.26	0.0589	435.1	7.832	15.31	8.70	1.72
	81.85	39.10	73.77	-0.00	0.0668	11.60	510.5	408.30	0.0591	436.4	7.856	15.36	8.75	1.72
	82.78	39.04	73.74	0.00	0.0668	11.61	510.7	408.51	0.0590	435.6	7.841	15.33	8.72	1.72
	83.79	39.04	73.72	-0.00	0.0668	11.60	510.3	408.36	0.0589	434.8	7.827	15.31	8.69	1.72
	84.79	39.08	73.74	0.00	0.0667	11.60	510.6	408.47	0.0595	441.2	7.942	15.53	8.91	1.72
	85.78	39.07	73.77	0.00	0.0668	11.61	510.8	408.53	0.0591	437.0	7.865	15.38	8.77	1.72
	86.80	39.04	73.80	-0.00	0.0667	11.60	510.4	407.96	0.0590	435.5	7.839	15.32	8.71	1.72
	87.80	39.04	73.77	0.00	0.0668	11.61	510.6	408.32	0.0591	435.8	7.845	15.33	8.73	1.72
	88.78	39.05	73.74	0.00	0.0668	11.60	510.6	408.47	0.0591	437.9	7.882	15.41	8.80	1.72
	89.80	39.05	73.77	0.00	0.0667	11.60	510.4	408.18	0.0594	440.4	7.927	15.50	8.88	1.72
	90.78	39.05	73.74	0.00	0.0668	11.60	510.5	408.33	0.0593	441.4	7.945	15.54	8.91	1.72
	91.79	39.05	73.74	0.00	0.0667	11.60	510.2	408.17	0.0595	440.9	7.936	15.52	8.90	1.72
	92.77	39.05	73.77	0.00	0.0668	11.60	510.5	408.26	0.0597	442.5	7.964	15.57	8.95	1.72
	93.85	39.01	73.77	0.00	0.0668	11.60	510.5	408.20	0.0594	435.7	7.842	15.33	8.72	1.72
	94.79	39.05	73.80	0.00	0.0666	11.59	509.9	407.58	0.0589	438.3	7.890	15.42	8.81	1.72
	95.78	39.05	73.80	-0.00	0.0666	11.57	509.1	406.99	0.0592	438.6	7.895	15.43	8.82	1.72
	96.78	39.05	73.77	0.00	0.0666	11.57	509.1	407.12	0.0594	440.2	7.923	15.49	8.87	1.72
	97.78	39.01	73.74	-0.00	0.0667	11.59	510.1	407.99	0.0589	435.1	7.831	15.31	8.70	1.72
	98.78	39.04	73.77	0.00	0.0666	11.57	509.1	407.10	0.0587	432.8	7.790	15.23	8.62	1.72
	99.79	39.05	73.74	-0.00	0.0665	11.55	508.1	406.42	0.0590	435.5	7.839	15.33	8.71	1.72
	100.79	39.05	73.77	-0.00	0.0667	11.58	509.3	407.28	0.0598	444.6	8.002	15.64	9.02	1.72
	101.79	39.02	73.74	-0.00	0.0666	11.57	509.0	407.15	0.0598	445.3	8.016	15.67	9.04	1.72
	102.79	39.04	73.77	0.00	0.0666	11.57	508.9	406.91	0.0599	444.0	7.993	15.62	9.00	1.72
	103.77	39.01	73.80	0.00	0.0667	11.59	509.8	407.50	0.0607	451.0	8.118	15.86	9.23	1.72
	104.79	39.01	73.77	0.00	0.0667	11.58	509.7	407.56	0.0600	447.8	8.061	15.76	9.13	1.72
	105.78	39.02	73.75	0.00	0.0667	11.59	509.8	407.77	0.0597	446.5	8.036	15.71	9.08	1.72
	106.78	39.05	73.77	0.00	0.0667	11.57	509.0	407.06	0.0600	444.2	7.996	15.63	9.01	1.72
	107.78	38.99	73.77	-0.00	0.0666	11.56	508.8	406.81	0.0600	446.3	8.033	15.70	9.07	1.72
	108.78	39.01	73.75	0.00	0.0666	11.56	508.5	406.70	0.0599	447.5	8.055	15.75	9.12	1.72
	109.78	39.01	73.77	0.00	0.0665	11.54	507.7	405.92	0.0597	443.7	7.987	15.61	8.99	1.72
	110.78	39.01	73.77	-0.00	0.0665	11.54	507.7	405.98	0.0601	448.1	8.067	15.77	9.14	1.72
	111.78	39.01	73.75	0.00	0.0664	11.52	507.0	405.50	0.0597	443.5	7.982	15.61	8.98	1.72
	112.77	39.01	73.77	0.00	0.0664	11.52	506.8	405.25	0.0595	442.1	7.957	15.55	8.94	1.72
	113.79	39.05	73.74	-0.00	0.0665	11.53	507.3	405.79	0.0598	444.7	8.005	15.65	9.03	1.72
	114.85	39.02	73.77	0.00	0.0665	11.56	508.6	406.64	0.0600	447.1	8.048	15.73	9.10	1.72
	115.78	39.05	73.77	-0.00	0.0665	11.54	507.9	406.12	0.0598	444.6	8.003	15.64	9.02	1.72
	116.80	39.05	73.74	-0.00	0.0665	11.53	507.3	405.85	0.0596	439.6	7.912	15.47	8.85	1.72
	117.78	39.07	73.77	0.00	0.0665	11.54	507.6	405.97	0.0598	444.3	7.997	15.63	9.01	1.72
	118.80	39.07	73.77	-0.00	0.0664	11.54	507.7	406.00	0.0593	440.9	7.936	15.51	8.90	1.72
	119.78	39.07	73.74	0.00	0.0665	11.55	508.2	406.55	0.0603	449.2	8.086	15.81	9.18	1.72
	120.78	39.07	73.72	0.00	0.0665	11.55	508.2	406.71	0.0606	453.3	8.159	15.96	9.31	1.72
	121.79	39.08	73.74	0.00	0.0665	11.54	507.6	406.09	0.0605	451.7	8.131	15.90	9.26	1.72
