Jul 23 2015 at 12:41:05
Frequency: 1.00Hz.
CO2
Zero:  Value:0.95  Date:18 Mar 2005	 at 07:22:33	
Span:  Value:1.00  Date:18 Mar 2005	 at 07:25:09	
H2O
Zero:  Value:0.71  Date:18 Mar 2005	 at 07:52:31	
Span:  Value:0.99  Date:18 Mar 2005	 at 11:44:01	
	Relative Time	Temperature	Pressure	Aux Input	CO2 Absorptance	CO2 mmol/m3	CO2 mg/m3	CO2 umol/mol	H2O Absorptance	H2O mmol/m3	H2O g/m3	H2O mmol/mol	H2O(°C)	Cooler Voltage
	0.84	39.11	73.77	0.00	0.0667	11.59	510.0	407.92	0.0591	436.0	7.848	15.34	8.74	1.73
	1.84	39.17	73.77	0.00	0.0667	11.58	509.7	407.72	0.0602	448.9	8.081	15.80	9.17	1.74
	2.84	39.13	73.74	0.00	0.0666	11.57	509.1	407.39	0.0607	455.1	8.191	16.02	9.37	1.73
	3.84	39.17	73.72	0.00	0.0666	11.57	509.0	407.45	0.0604	452.0	8.136	15.92	9.27	1.73
	4.85	39.17	73.77	-0.00	0.0667	11.60	510.4	408.28	0.0598	444.9	8.008	15.66	9.04	1.73
	5.83	39.16	73.77	0.00	0.0667	11.60	510.2	408.14	0.0594	440.2	7.923	15.49	8.88	1.73
	6.83	39.16	73.74	0.00	0.0666	11.57	509.2	407.48	0.0599	444.9	8.009	15.67	9.04	1.73
	7.85	39.16	73.77	-0.00	0.0667	11.57	509.3	407.38	0.0592	438.5	7.892	15.43	8.82	1.74
	8.85	39.14	73.75	-0.00	0.0667	11.59	510.2	408.22	0.0590	435.6	7.840	15.34	8.72	1.73
	9.84	39.14	73.74	0.00	0.0666	11.56	508.8	407.14	0.0590	436.4	7.855	15.37	8.75	1.73
	10.83	39.14	73.74	0.00	0.0670	11.57	508.9	407.23	0.0591	434.5	7.821	15.30	8.69	1.73
	11.90	39.17	73.77	0.00	0.0666	11.57	509.1	407.28	0.0589	435.5	7.839	15.33	8.72	1.73
	12.84	39.13	73.74	0.00	0.0664	11.52	507.0	405.68	0.0586	431.6	7.769	15.20	8.59	1.73
	13.91	39.12	73.74	0.00	0.0667	11.57	508.9	407.21	0.0588	434.4	7.820	15.29	8.68	1.74
	14.87	39.13	73.77	-0.00	0.0666	11.56	508.7	406.93	0.0587	433.6	7.804	15.26	8.65	1.73
	15.83	39.14	73.74	0.00	0.0665	11.54	507.8	406.34	0.0588	434.4	7.819	15.29	8.68	1.73
	16.85	39.12	73.77	0.00	0.0665	11.55	508.0	406.36	0.0587	433.9	7.811	15.27	8.67	1.73
	17.83	39.12	73.77	0.00	0.0665	11.54	507.6	406.02	0.0587	432.7	7.789	15.23	8.62	1.73
	18.86	39.11	73.74	-0.00	0.0666	11.56	508.7	407.00	0.0586	433.3	7.800	15.25	8.64	1.73
	19.86	39.14	73.74	-0.00	0.0666	11.57	509.0	407.26	0.0589	436.5	7.856	15.37	8.75	1.74
	20.86	39.17	73.74	0.00	0.0664	11.53	507.5	406.14	0.0587	433.6	7.804	15.27	8.66	1.74
	21.86	39.16	73.77	-0.00	0.0664	11.52	506.8	405.43	0.0585	431.0	7.757	15.17	8.57	1.73
	22.85	39.14	73.77	-0.00	0.0663	11.51	506.4	405.07	0.0587	432.5	7.785	15.22	8.62	1.74
	23.84	39.17	73.74	0.00	0.0664	11.51	506.6	405.42	0.0587	433.0	7.793	15.25	8.63	1.74
	24.85	39.17	73.77	0.00	0.0664	11.53	507.1	405.69	0.0586	432.9	7.792	15.24	8.63	1.74
	25.83	39.17	73.77	0.00	0.0665	11.52	507.0	405.57	0.0587	432.8	7.790	15.23	8.63	1.74
	26.85	39.17	73.74	0.00	0.0664	11.54	507.6	406.23	0.0589	435.4	7.838	15.33	8.72	1.74
	27.85	39.11	73.77	-0.00	0.0664	11.53	507.3	405.79	0.0589	435.4	7.837	15.32	8.72	1.74
	28.84	39.11	73.74	0.00	0.0666	11.53	507.1	405.76	0.0594	435.8	7.844	15.34	8.73	1.74
	29.83	39.14	73.74	0.00	0.0665	11.56	508.5	406.90	0.0592	439.6	7.913	15.48	8.86	1.74
	30.84	39.10	73.77	0.00	0.0665	11.53	507.5	405.89	0.0590	437.3	7.871	15.39	8.78	1.74
	31.84	39.11	73.77	0.00	0.0662	11.48	505.0	403.95	0.0584	430.7	7.753	15.16	8.56	1.74
	32.84	39.08	73.74	0.00	0.0665	11.54	507.7	406.22	0.0590	436.6	7.858	15.37	8.75	1.73
	33.84	39.06	73.75	0.00	0.0666	11.56	508.5	406.80	0.0593	439.2	7.906	15.46	8.84	1.74
	34.84	39.17	73.77	0.00	0.0665	11.55	508.2	406.56	0.0593	438.1	7.885	15.42	8.81	1.74
	35.85	39.20	73.77	-0.00	0.0664	11.52	507.1	405.71	0.0590	435.3	7.835	15.32	8.71	1.74
	36.91	39.16	73.74	0.00	0.0664	11.52	506.9	405.66	0.0589	433.8	7.808	15.27	8.66	1.74
	37.85	39.23	73.77	-0.00	0.0666	11.57	509.0	407.25	0.0595	441.3	7.944	15.54	8.92	1.74
	38.84	39.24	73.74	0.00	0.0666	11.56	508.7	407.21	0.0596	442.1	7.957	15.57	8.95	1.74
	39.83	39.24	73.77	0.00	0.0665	11.54	507.6	406.17	0.0593	437.8	7.880	15.41	8.80	1.74
	40.84	39.24	73.80	-0.00	0.0666	11.57	509.1	407.26	0.0595	443.3	7.979	15.60	8.99	1.74
	41.85	39.20	73.77	-0.00	0.0664	11.53	507.2	405.82	0.0588	434.3	7.817	15.29	8.68	1.74
	42.84	39.23	73.77	-0.00	0.0665	11.55	508.2	406.62	0.0590	436.4	7.855	15.36	8.75	1.74
	43.85	39.22	73.77	0.00	0.0665	11.55	508.2	406.62	0.0590	436.0	7.847	15.35	8.74	1.74
	44.84	39.22	73.77	0.00	0.0664	11.53	507.5	406.04	0.0588	435.4	7.838	15.33	8.72	1.74
	45.86	39.23	73.77	-0.00	0.0664	11.53	507.3	405.90	0.0588	434.5	7.821	15.30	8.69	1.74
	46.85	39.22	73.77	0.00	0.0665	11.53	507.5	406.05	0.0590	434.4	7.819	15.29	8.68	1.74
	47.85	39.22	73.77	0.00	0.0666	11.56	508.5	406.87	0.0598	442.5	7.965	15.58	8.96	1.74
	48.84	39.20	73.77	0.00	0.0665	11.55	508.4	406.72	0.0596	441.9	7.955	15.56	8.94	1.74
	49.84	39.22	73.77	0.00	0.0665	11.54	507.9	406.35	0.0593	440.6	7.931	15.51	8.90	1.74
	50.84	39.25	73.74	0.00	0.0663	11.51	506.3	405.27	0.0587	434.2	7.816	15.29	8.68	1.74
	51.84	39.26	73.77	0.00	0.0664	11.53	507.2	405.87	0.0588	434.1	7.814	15.29	8.68	1.74
	52.84	39.26	73.77	0.00	0.0666	11.56	508.6	406.97	0.0599	443.4	7.981	15.61	8.99	1.74
	53.85	39.25	73.77	0.00	0.0666	11.57	509.0	407.33	0.0597	443.1	7.977	15.60	8.98	1.74
	54.85	39.24	73.77	0.00	0.0666	11.56	508.6	406.93	0.0598	443.9	7.990	15.63	9.01	1.74
	55.85	39.18	73.72	-0.00	0.0666	11.57	509.1	407.56	0.0603	448.6	8.074	15.80	9.16	1.74
	56.83	39.22	73.74	0.00	0.0666	11.55	508.4	406.90	0.0601	445.0	8.011	15.67	9.04	1.74
	57.84	39.22	73.77	0.00	0.0665	11.56	508.5	406.82	0.0599	446.5	8.037	15.72	9.09	1.74
	58.86	39.19	73.77	-0.00	0.0665	11.54	508.0	406.38	0.0601	448.0	8.063	15.77	9.14	1.74
	59.90	39.19	73.77	0.00	0.0666	11.56	508.5	406.80	0.0602	448.8	8.078	15.80	9.17	1.74
	60.86	39.16	73.74	-0.00	0.0666	11.56	508.8	407.18	0.0602	449.4	8.089	15.82	9.19	1.74
	61.82	39.19	73.77	0.00	0.0664	11.52	507.1	405.69	0.0593	440.6	7.932	15.51	8.90	1.74
	62.85	39.19	73.77	-0.00	0.0665	11.54	507.9	406.36	0.0597	443.4	7.981	15.61	8.99	1.74
	63.84	39.19	73.74	-0.00	0.0665	11.55	508.1	406.68	0.0597	443.2	7.977	15.61	8.98	1.74
	64.85	39.16	73.77	0.00	0.0665	11.55	508.3	406.59	0.0596	443.0	7.974	15.59	8.97	1.74
	65.91	39.17	73.74	0.00	0.0665	11.55	508.0	406.54	0.0598	443.6	7.985	15.62	8.99	1.74
	66.83	39.17	73.74	0.00	0.0665	11.52	507.0	405.75	0.0601	446.3	8.034	15.72	9.08	1.74
	67.84	39.17	73.77	0.00	0.0665	11.54	507.9	406.34	0.0603	450.1	8.102	15.84	9.21	1.74
	68.83	39.17	73.77	0.00	0.0666	11.55	508.2	406.53	0.0604	450.5	8.109	15.86	9.22	1.74
	69.83	39.17	73.72	0.00	0.0666	11.57	508.9	407.37	0.0601	446.7	8.041	15.73	9.10	1.74
	70.84	39.14	73.72	0.00	0.0665	11.56	508.5	407.02	0.0598	446.0	8.027	15.71	9.07	1.75
	71.84	39.14	73.77	-0.00	0.0666	11.55	508.3	406.59	0.0600	445.0	8.010	15.66	9.04	1.75
	72.85	39.14	73.74	-0.00	0.0666	11.56	508.6	407.00	0.0605	450.9	8.116	15.88	9.23	1.74
	73.85	39.12	73.77	-0.00	0.0666	11.56	508.7	406.87	0.0606	453.1	8.155	15.95	9.30	1.74
	74.85	39.14	73.74	-0.00	0.0666	11.56	508.6	407.00	0.0601	449.0	8.082	15.81	9.17	1.74
	75.86	39.14	73.74	-0.00	0.0665	11.54	507.9	406.39	0.0595	442.5	7.965	15.58	8.96	1.74
	76.85	39.13	73.77	0.00	0.0666	11.55	508.2	406.49	0.0599	445.7	8.023	15.69	9.06	1.75
	77.86	39.16	73.74	-0.00	0.0666	11.58	509.3	407.59	0.0603	450.9	8.116	15.88	9.23	1.75
	78.84	39.17	73.74	0.00	0.0666	11.58	509.4	407.64	0.0600	449.4	8.090	15.83	9.19	1.74
	79.86	39.22	73.77	-0.00	0.0666	11.57	509.1	407.30	0.0601	447.4	8.053	15.75	9.12	1.74
	80.92	39.22	73.77	0.00	0.0666	11.56	508.7	407.02	0.0600	446.5	8.037	15.72	9.09	1.74
	81.84	39.19	73.77	0.00	0.0666	11.55	508.4	406.74	0.0601	448.1	8.065	15.77	9.14	1.75
	82.85	39.19	73.77	0.00	0.0666	11.56	508.5	406.81	0.0601	446.8	8.042	15.73	9.10	1.75
	83.85	39.19	73.75	-0.00	0.0665	11.56	508.6	407.00	0.0603	450.7	8.113	15.87	9.23	1.75
	84.91	39.17	73.77	0.00	0.0670	11.66	512.8	410.24	0.0611	458.4	8.250	16.13	9.48	1.75
	85.83	39.19	73.80	0.00	0.0667	11.59	509.8	407.72	0.0605	451.3	8.123	15.88	9.25	1.75
	86.85	39.19	73.77	0.00	0.0667	11.59	509.9	407.96	0.0607	454.6	8.184	16.00	9.36	1.75
	87.84	39.18	73.74	0.00	0.0666	11.57	509.1	407.46	0.0604	450.6	8.111	15.87	9.23	1.75
	88.84	39.22	73.77	-0.00	0.0667	11.58	509.6	407.75	0.0605	452.9	8.153	15.95	9.31	1.75
	89.84	39.20	73.74	0.00	0.0667	11.59	509.9	408.12	0.0606	453.8	8.169	15.98	9.33	1.75
	90.84	39.18	73.77	0.00	0.0666	11.58	509.3	407.45	0.0605	452.0	8.135	15.91	9.27	1.75
	91.85	39.17	73.77	-0.00	0.0667	11.57	509.2	407.37	0.0605	451.6	8.129	15.90	9.26	1.75
	92.82	39.23	73.77	0.00	0.0666	11.56	508.7	406.99	0.0602	448.7	8.076	15.80	9.17	1.75
	93.91	39.20	73.77	0.00	0.0666	11.56	508.7	407.03	0.0601	447.1	8.049	15.74	9.11	1.75
	94.83	39.18	73.77	0.00	0.0668	11.61	510.6	408.50	0.0603	450.1	8.102	15.84	9.21	1.75
	95.91	39.19	73.72	-0.00	0.0667	11.59	510.1	408.36	0.0603	449.6	8.092	15.84	9.19	1.75
	96.83	39.18	73.77	0.00	0.0667	11.58	509.6	407.72	0.0603	449.6	8.092	15.82	9.19	1.75
	97.92	39.16	73.77	-0.00	0.0667	11.58	509.7	407.72	0.0603	449.7	8.094	15.83	9.19	1.75
	98.83	39.23	73.77	0.00	0.0671	11.68	513.8	411.12	0.0608	454.7	8.185	16.01	9.36	1.75
	99.84	39.18	73.80	0.00	0.0669	11.64	512.0	409.47	0.0604	451.7	8.131	15.89	9.26	1.75
	100.82	39.16	73.74	0.00	0.0666	11.58	509.5	407.72	0.0599	447.0	8.046	15.74	9.11	1.75
	101.84	39.19	73.74	0.00	0.0666	11.57	509.2	407.50	0.0599	446.0	8.029	15.71	9.08	1.75
	102.84	39.24	73.80	0.00	0.0667	11.58	509.6	407.57	0.0601	447.4	8.053	15.75	9.12	1.75
	103.85	39.20	73.74	0.00	0.0668	11.60	510.3	408.40	0.0603	449.2	8.086	15.82	9.18	1.75
	104.85	39.23	73.80	0.00	0.0668	11.60	510.6	408.42	0.0603	449.6	8.093	15.82	9.20	1.75
	105.85	39.26	73.77	-0.00	0.0668	11.62	511.2	409.06	0.0604	450.8	8.114	15.87	9.24	1.75
	106.84	39.23	73.77	0.00	0.0668	11.61	510.9	408.78	0.0604	450.6	8.110	15.86	9.23	1.75
	107.91	39.29	73.77	0.00	0.0668	11.61	511.0	408.96	0.0603	450.9	8.116	15.88	9.24	1.75
	108.86	39.29	73.77	-0.00	0.0668	11.60	510.6	408.60	0.0602	449.0	8.083	15.81	9.18	1.75
	109.84	39.26	73.72	-0.00	0.0667	11.58	509.7	408.14	0.0600	445.9	8.026	15.71	9.07	1.75
	110.85	39.26	73.77	-0.00	0.0667	11.58	509.4	407.65	0.0600	446.0	8.027	15.70	9.08	1.75
	111.84	39.23	73.77	0.00	0.0667	11.59	510.0	408.04	0.0600	447.3	8.051	15.75	9.12	1.75
	112.84	39.24	73.72	-0.00	0.0668	11.59	510.1	408.41	0.0601	448.1	8.065	15.79	9.14	1.75
	113.85	39.24	73.74	-0.00	0.0667	11.60	510.3	408.42	0.0600	446.3	8.033	15.72	9.09	1.75
	114.85	39.24	73.77	-0.00	0.0668	11.61	510.8	408.72	0.0602	448.0	8.065	15.77	9.14	1.75
	115.83	39.17	73.80	0.00	0.0668	11.61	510.9	408.58	0.0601	447.5	8.055	15.75	9.12	1.75
	116.86	39.22	73.80	-0.00	0.0669	11.61	510.9	408.59	0.0601	447.6	8.057	15.75	9.13	1.75
	117.83	39.22	73.77	0.00	0.0670	11.64	512.3	409.88	0.0601	447.0	8.046	15.74	9.11	1.75
	118.84	39.22	73.79	0.00	0.0670	11.65	512.5	409.89	0.0600	447.1	8.047	15.73	9.11	1.75
	119.84	39.22	73.77	-0.00	0.0669	11.64	512.1	409.76	0.0601	447.9	8.062	15.77	9.14	1.75
	120.84	39.22	73.77	0.00	0.0669	11.64	512.1	409.70	0.0601	448.8	8.078	15.80	9.17	1.75
	121.84	39.22	73.80	0.00	0.0668	11.62	511.1	408.78	0.0600	446.4	8.035	15.71	9.09	1.75
	122.83	39.24	73.77	0.00	0.0669	11.62	511.2	409.00	0.0600	445.5	8.019	15.68	9.06	1.75
