Jul 23 2015 at 10:07:05
Frequency: 1.00Hz.
CO2
Zero:  Value:0.95  Date:18 Mar 2005	 at 07:22:33	
Span:  Value:1.00  Date:18 Mar 2005	 at 07:25:09	
H2O
Zero:  Value:0.71  Date:18 Mar 2005	 at 07:52:31	
Span:  Value:0.99  Date:18 Mar 2005	 at 11:44:01	
	Relative Time	Temperature	Pressure	Aux Input	CO2 Absorptance	CO2 mmol/m3	CO2 mg/m3	CO2 umol/mol	H2O Absorptance	H2O mmol/m3	H2O g/m3	H2O mmol/mol	H2O(°C)	Cooler Voltage
	0.20	28.60	73.72	0.00	0.0677	11.81	519.8	402.01	0.0808	689.1	12.404	23.45	15.16	1.67
	1.19	28.63	73.75	0.00	0.0685	11.98	527.2	407.65	0.0754	616.6	11.098	20.98	13.44	1.67
	2.21	28.60	73.72	-0.00	0.0682	11.93	524.9	405.97	0.0766	636.7	11.461	21.67	13.93	1.67
	3.20	28.60	73.72	0.00	0.0684	11.98	527.0	407.58	0.0745	608.7	10.956	20.71	13.24	1.67
	4.23	28.60	73.74	-0.00	0.0681	11.93	524.8	405.78	0.0768	630.3	11.346	21.44	13.78	1.67
	5.23	28.59	73.74	-0.00	0.0679	11.86	521.9	403.53	0.0784	653.0	11.754	22.21	14.32	1.67
	6.21	28.59	73.74	0.00	0.0681	11.89	523.1	404.43	0.0774	645.8	11.625	21.97	14.15	1.67
	7.22	28.60	73.77	-0.00	0.0682	11.93	524.9	405.67	0.0758	615.9	11.085	20.94	13.42	1.67
	8.21	28.60	73.74	0.00	0.0682	11.92	524.3	405.39	0.0760	630.0	11.340	21.43	13.77	1.67
	9.20	28.60	73.72	0.00	0.0678	11.83	520.7	402.75	0.0792	665.9	11.986	22.66	14.63	1.67
	10.22	28.60	73.75	-0.00	0.0677	11.81	519.5	401.62	0.0794	673.8	12.128	22.92	14.81	1.67
	11.20	28.60	73.74	0.00	0.0678	11.83	520.5	402.40	0.0779	651.5	11.727	22.16	14.29	1.67
	12.21	28.60	73.75	0.00	0.0677	11.80	519.4	401.59	0.0793	668.8	12.038	22.75	14.69	1.67
	13.21	28.63	73.74	-0.00	0.0675	11.76	517.7	400.28	0.0807	685.8	12.344	23.33	15.08	1.67
	14.21	28.60	73.74	0.00	0.0676	11.78	518.5	400.89	0.0806	685.8	12.344	23.33	15.08	1.67
	15.21	28.60	73.77	0.00	0.0677	11.80	519.3	401.40	0.0795	675.3	12.156	22.97	14.84	1.67
	16.21	28.62	73.75	0.00	0.0680	11.88	522.7	404.18	0.0761	633.0	11.394	21.54	13.84	1.67
	17.21	28.62	73.74	0.00	0.0683	11.93	524.8	405.77	0.0748	614.4	11.058	20.90	13.39	1.67
	18.21	28.62	73.72	0.00	0.0683	11.95	525.8	406.70	0.0743	608.5	10.953	20.71	13.24	1.67
	19.20	28.62	73.72	-0.00	0.0683	11.94	525.6	406.53	0.0748	612.9	11.032	20.86	13.35	1.67
	20.20	28.60	73.74	0.00	0.0683	11.95	525.6	406.36	0.0736	601.8	10.832	20.47	13.07	1.67
	21.20	28.64	73.74	0.00	0.0681	11.90	523.8	405.04	0.0751	614.1	11.054	20.89	13.38	1.67
	22.21	28.62	73.72	0.00	0.0683	11.94	525.3	406.34	0.0740	604.5	10.882	20.57	13.14	1.67
	23.21	28.64	73.75	-0.00	0.0683	11.96	526.5	407.09	0.0746	607.8	10.941	20.68	13.22	1.67
	24.21	28.67	73.72	-0.00	0.0681	11.91	523.9	405.28	0.0750	615.8	11.085	20.96	13.42	1.67
	25.19	28.64	73.72	0.00	0.0681	11.90	523.8	405.16	0.0748	614.0	11.052	20.90	13.38	1.67
	26.21	28.64	73.77	-0.00	0.0681	11.89	523.3	404.54	0.0754	619.5	11.151	21.07	13.51	1.67
	27.21	28.68	73.72	-0.00	0.0681	11.90	523.5	405.00	0.0752	617.4	11.114	21.02	13.46	1.67
	28.22	28.66	73.74	-0.00	0.0680	11.88	522.9	404.35	0.0753	620.2	11.164	21.10	13.53	1.67
	29.19	28.66	73.72	0.00	0.0681	11.88	522.9	404.52	0.0754	619.7	11.155	21.09	13.52	1.67
	30.20	28.68	73.72	0.00	0.0680	11.88	522.9	404.55	0.0756	623.7	11.227	21.23	13.62	1.67
	31.20	28.66	73.74	-0.00	0.0683	11.94	525.5	406.36	0.0785	656.0	11.808	22.32	14.40	1.67
	32.21	28.66	73.75	0.00	0.0681	11.90	523.8	405.05	0.0772	647.1	11.648	22.02	14.19	1.67
	33.21	28.69	73.72	-0.00	0.0680	11.88	522.8	404.50	0.0773	646.1	11.630	21.99	14.16	1.67
	34.23	28.66	73.72	-0.00	0.0681	11.90	523.6	405.05	0.0770	637.9	11.483	21.71	13.97	1.67
	35.21	28.68	73.74	0.00	0.0680	11.89	523.0	404.48	0.0766	634.2	11.416	21.58	13.88	1.67
	36.21	28.68	73.72	0.00	0.0680	11.88	522.6	404.34	0.0771	640.0	11.519	21.78	14.02	1.67
	37.21	28.66	73.72	0.00	0.0679	11.87	522.1	403.87	0.0768	637.2	11.470	21.69	13.95	1.67
	38.22	28.66	73.74	-0.00	0.0680	11.87	522.1	403.74	0.0772	641.4	11.546	21.83	14.05	1.67
	39.22	28.71	73.72	-0.00	0.0679	11.85	521.6	403.59	0.0771	640.9	11.536	21.82	14.04	1.67
	40.22	28.68	73.74	0.00	0.0680	11.88	522.7	404.22	0.0776	646.0	11.628	21.98	14.16	1.67
	41.22	28.66	73.77	-0.00	0.0680	11.89	523.0	404.27	0.0777	648.1	11.665	22.04	14.21	1.67
	42.21	28.68	73.72	0.00	0.0681	11.89	523.2	404.78	0.0780	652.0	11.736	22.19	14.30	1.67
	43.21	28.68	73.75	-0.00	0.0681	11.90	523.6	404.93	0.0776	648.4	11.671	22.06	14.22	1.67
	44.21	28.69	73.74	0.00	0.0681	11.90	523.7	405.05	0.0780	650.8	11.714	22.15	14.28	1.67
	45.19	28.68	73.74	0.00	0.0681	11.90	523.4	404.77	0.0782	654.6	11.783	22.27	14.36	1.67
	46.22	28.70	73.74	-0.00	0.0682	11.92	524.4	405.56	0.0783	654.3	11.778	22.27	14.36	1.67
	47.21	28.68	73.74	0.00	0.0680	11.88	522.7	404.23	0.0788	662.3	11.921	22.54	14.55	1.67
	48.22	28.68	73.72	0.00	0.0680	11.89	523.2	404.79	0.0790	658.1	11.846	22.40	14.45	1.67
	49.20	28.69	73.74	0.00	0.0680	11.88	522.6	404.21	0.0788	664.5	11.960	22.61	14.60	1.67
	50.20	28.70	73.72	0.00	0.0681	11.89	523.2	404.78	0.0784	658.5	11.853	22.42	14.46	1.67
	51.20	28.72	73.74	0.00	0.0681	11.89	523.1	404.64	0.0793	665.5	11.979	22.65	14.62	1.67
	52.21	28.70	73.75	-0.00	0.0680	11.88	522.6	404.20	0.0793	667.3	12.011	22.71	14.66	1.67
	53.20	28.72	73.72	0.00	0.0680	11.87	522.2	404.07	0.0793	668.4	12.031	22.75	14.69	1.67
	54.21	28.70	73.74	0.00	0.0680	11.88	522.7	404.26	0.0791	666.8	12.002	22.69	14.65	1.67
	55.21	28.72	73.74	-0.00	0.0680	11.87	522.2	403.94	0.0792	667.1	12.008	22.70	14.66	1.67
	56.22	28.69	73.77	-0.00	0.0679	11.86	521.8	403.40	0.0803	680.8	12.254	23.16	14.97	1.67
	57.22	28.70	73.74	-0.00	0.0678	11.83	520.5	402.58	0.0804	683.0	12.293	23.24	15.02	1.67
	58.20	28.69	73.72	0.00	0.0678	11.82	520.3	402.51	0.0802	679.5	12.231	23.13	14.94	1.67
	59.22	28.70	73.77	-0.00	0.0677	11.82	520.0	402.08	0.0803	681.1	12.260	23.17	14.98	1.67
	60.20	28.72	73.74	0.00	0.0678	11.82	520.1	402.29	0.0802	678.6	12.216	23.10	14.93	1.68
	61.22	28.72	73.74	-0.00	0.0678	11.82	520.1	402.33	0.0804	681.8	12.272	23.20	15.00	1.67
	62.23	28.70	73.72	-0.00	0.0678	11.84	520.9	403.05	0.0805	681.8	12.272	23.21	15.00	1.67
	63.21	28.70	73.74	0.00	0.0678	11.84	520.8	402.79	0.0806	683.5	12.302	23.26	15.03	1.67
	64.23	28.74	73.72	-0.00	0.0677	11.82	520.1	402.47	0.0807	685.6	12.341	23.34	15.09	1.67
	65.21	28.77	73.72	0.00	0.0678	11.82	519.9	402.35	0.0810	690.2	12.423	23.50	15.19	1.67
	66.19	28.74	73.72	0.00	0.0678	11.82	519.9	402.28	0.0811	693.0	12.473	23.59	15.25	1.67
	67.22	28.71	73.74	-0.00	0.0678	11.82	520.0	402.17	0.0809	690.2	12.424	23.49	15.19	1.67
	68.22	28.72	73.77	-0.00	0.0677	11.82	519.9	402.00	0.0810	691.1	12.440	23.51	15.21	1.67
	69.20	28.72	73.74	0.00	0.0677	11.81	519.5	401.81	0.0809	689.3	12.408	23.46	15.17	1.67
	70.22	28.71	73.75	0.00	0.0678	11.84	520.8	402.81	0.0813	694.0	12.491	23.62	15.27	1.67
	71.20	28.72	73.74	0.00	0.0679	11.85	521.3	403.23	0.0813	694.4	12.499	23.63	15.28	1.67
	72.21	28.71	73.74	0.00	0.0678	11.83	520.6	402.69	0.0815	698.4	12.571	23.77	15.37	1.67
	73.21	28.72	73.72	-0.00	0.0678	11.83	520.4	402.62	0.0812	693.0	12.474	23.59	15.25	1.67
	74.19	28.72	73.74	0.00	0.0678	11.82	520.2	402.34	0.0814	695.1	12.512	23.66	15.30	1.67
	75.21	28.73	73.72	-0.00	0.0677	11.81	519.8	402.24	0.0816	697.5	12.555	23.75	15.35	1.67
	76.22	28.74	73.72	0.00	0.0677	11.81	519.6	402.08	0.0821	703.1	12.655	23.94	15.48	1.67
	77.20	28.76	73.74	0.00	0.0675	11.78	518.2	400.86	0.0821	706.1	12.711	24.04	15.55	1.67
	78.22	28.74	73.74	-0.00	0.0675	11.76	517.3	400.12	0.0821	705.6	12.700	24.01	15.53	1.68
	79.28	28.74	73.72	-0.00	0.0675	11.77	517.8	400.67	0.0822	706.1	12.709	24.04	15.54	1.67
	80.22	28.72	73.74	-0.00	0.0676	11.78	518.3	400.91	0.0823	707.6	12.736	24.08	15.58	1.67
	81.20	28.74	73.72	0.00	0.0675	11.77	518.0	400.80	0.0824	707.7	12.738	24.09	15.58	1.67
	82.18	28.74	73.74	0.00	0.0675	11.78	518.1	400.79	0.0827	711.2	12.802	24.21	15.66	1.67
	83.21	28.76	73.80	-0.00	0.0675	11.76	517.6	400.10	0.0827	712.5	12.825	24.23	15.69	1.67
	84.21	28.74	73.74	-0.00	0.0676	11.78	518.4	400.98	0.0826	712.5	12.825	24.25	15.68	1.67
	85.19	28.74	73.72	0.00	0.0675	11.77	517.9	400.73	0.0826	710.4	12.788	24.19	15.64	1.67
	86.21	28.74	73.75	0.00	0.0675	11.76	517.3	400.13	0.0824	709.3	12.768	24.14	15.62	1.67
	87.22	28.76	73.74	0.00	0.0675	11.76	517.5	400.36	0.0823	706.0	12.709	24.03	15.54	1.67
	88.20	28.74	73.74	0.00	0.0675	11.76	517.4	400.23	0.0824	707.1	12.728	24.07	15.57	1.67
	89.22	28.78	73.72	-0.00	0.0674	11.75	517.1	400.22	0.0824	708.9	12.759	24.14	15.61	1.68
	90.20	28.74	73.74	0.00	0.0675	11.75	517.1	399.99	0.0823	708.6	12.755	24.12	15.60	1.68
	91.21	28.75	73.72	0.00	0.0673	11.72	515.6	399.01	0.0828	713.3	12.839	24.29	15.70	1.67
	92.23	28.76	73.75	0.00	0.0674	11.75	516.8	399.78	0.0822	707.4	12.734	24.08	15.57	1.67
	93.29	28.78	73.72	-0.00	0.0674	11.75	516.8	399.94	0.0827	712.2	12.819	24.25	15.68	1.67
	94.19	28.76	73.74	0.00	0.0675	11.74	516.8	399.76	0.0830	715.4	12.878	24.35	15.75	1.67
	95.22	28.76	73.72	-0.00	0.0675	11.76	517.2	400.25	0.0829	715.4	12.877	24.36	15.75	1.67
	96.19	28.76	73.72	0.00	0.0674	11.74	516.7	399.83	0.0832	719.6	12.952	24.50	15.84	1.67
	97.20	28.76	73.74	0.00	0.0674	11.74	516.7	399.67	0.0831	718.5	12.933	24.46	15.82	1.67
	98.20	28.78	73.74	-0.00	0.0674	11.74	516.6	399.67	0.0831	718.3	12.929	24.45	15.81	1.67
	99.20	28.76	73.74	0.00	0.0674	11.74	516.6	399.59	0.0832	718.0	12.924	24.44	15.81	1.67
	100.20	28.76	73.72	0.00	0.0674	11.75	516.9	399.98	0.0834	721.0	12.979	24.55	15.87	1.67
	101.21	28.76	73.72	-0.00	0.0673	11.73	516.3	399.55	0.0832	719.4	12.949	24.49	15.84	1.67
	102.20	28.76	73.72	0.00	0.0674	11.73	516.3	399.56	0.0836	723.9	13.030	24.65	15.93	1.67
	103.21	28.78	73.75	0.00	0.0674	11.73	516.2	399.32	0.0836	725.2	13.054	24.69	15.96	1.67
	104.19	28.75	73.72	0.00	0.0674	11.73	516.2	399.44	0.0837	725.4	13.058	24.70	15.97	1.67
	105.27	28.78	73.72	0.00	0.0674	11.73	516.3	399.58	0.0835	722.6	13.008	24.61	15.91	1.67
	106.22	28.76	73.74	-0.00	0.0675	11.75	517.2	400.10	0.0835	722.3	13.001	24.58	15.90	1.67
	107.22	28.79	73.74	-0.00	0.0674	11.74	516.6	399.70	0.0835	722.1	12.998	24.58	15.90	1.68
	108.19	28.77	73.69	0.00	0.0674	11.74	516.5	399.84	0.0834	722.7	13.008	24.62	15.91	1.67
	109.22	28.77	73.74	-0.00	0.0674	11.74	516.4	399.53	0.0836	722.8	13.010	24.60	15.91	1.67
	110.20	28.76	73.77	-0.00	0.0673	11.71	515.4	398.58	0.0838	726.2	13.072	24.71	15.98	1.68
	111.21	28.78	73.77	-0.00	0.0673	11.72	515.5	398.69	0.0838	727.2	13.089	24.74	16.01	1.68
	112.20	28.80	73.74	-0.00	0.0673	11.72	515.7	399.00	0.0840	729.7	13.135	24.84	16.06	1.68
	113.19	28.80	73.72	0.00	0.0673	11.72	515.8	399.22	0.0840	729.8	13.136	24.85	16.06	1.67
	114.19	28.82	73.72	0.00	0.0673	11.72	515.9	399.28	0.0842	729.0	13.122	24.83	16.05	1.67
	115.19	28.77	73.75	0.00	0.0673	11.73	515.9	399.11	0.0843	732.5	13.185	24.93	16.12	1.67
	116.24	28.78	73.74	-0.00	0.0673	11.71	515.4	398.73	0.0840	730.8	13.154	24.88	16.08	1.67
	117.20	28.81	73.77	0.00	0.0673	11.72	515.9	399.02	0.0839	728.1	13.105	24.78	16.03	1.67
	118.20	28.78	73.75	0.00	0.0673	11.72	515.7	398.95	0.0842	731.2	13.162	24.89	16.09	1.67
	119.22	28.79	73.72	0.00	0.0672	11.69	514.3	398.03	0.0847	739.3	13.307	25.18	16.27	1.68
	120.23	28.75	73.77	-0.00	0.0673	11.72	515.5	398.63	0.0845	735.2	13.233	25.01	16.18	1.67
	121.21	28.82	73.72	-0.00	0.0671	11.68	513.9	397.78	0.0850	740.3	13.326	25.21	16.29	1.67
