Jul 23 2015 at 11:11:00
Frequency: 1.00Hz.
CO2
Zero:  Value:0.95  Date:18 Mar 2005	 at 07:22:33	
Span:  Value:1.00  Date:18 Mar 2005	 at 07:25:09	
H2O
Zero:  Value:0.71  Date:18 Mar 2005	 at 07:52:31	
Span:  Value:0.99  Date:18 Mar 2005	 at 11:44:01	
	Relative Time	Temperature	Pressure	Aux Input	CO2 Absorptance	CO2 mmol/m3	CO2 mg/m3	CO2 umol/mol	H2O Absorptance	H2O mmol/m3	H2O g/m3	H2O mmol/mol	H2O(°C)	Cooler Voltage
	0.28	31.12	73.77	0.00	0.0680	11.88	522.9	407.49	0.0534	379.4	6.829	13.01	6.32	1.61
	1.29	31.09	73.74	-0.00	0.0677	11.83	520.4	405.69	0.0550	393.3	7.080	13.49	6.84	1.61
	2.37	31.09	73.80	-0.00	0.0676	11.78	518.2	403.68	0.0562	407.4	7.334	13.97	7.36	1.61
	3.28	31.13	73.77	0.00	0.0674	11.76	517.3	403.15	0.0581	422.6	7.606	14.49	7.89	1.61
	4.29	31.13	73.74	0.00	0.0673	11.71	515.3	401.75	0.0594	441.6	7.948	15.15	8.54	1.61
	5.27	31.13	73.80	0.00	0.0673	11.72	515.5	401.63	0.0593	438.6	7.894	15.03	8.44	1.61
	6.29	31.17	73.77	0.00	0.0672	11.70	514.9	401.36	0.0607	454.1	8.174	15.57	8.96	1.61
	7.27	31.15	73.74	0.00	0.0672	11.70	514.7	401.31	0.0617	462.2	8.319	15.86	9.22	1.61
	8.28	31.15	73.77	-0.00	0.0672	11.71	515.4	401.68	0.0607	453.5	8.163	15.55	8.93	1.61
	9.30	31.15	73.77	-0.00	0.0673	11.73	516.3	402.41	0.0594	440.5	7.929	15.11	8.51	1.61
	10.28	31.19	73.74	0.00	0.0672	11.71	515.2	401.72	0.0578	430.1	7.741	14.76	8.15	1.61
	11.28	31.17	73.75	0.00	0.0673	11.72	515.9	402.26	0.0596	436.3	7.853	14.97	8.36	1.61
	12.28	31.19	73.75	0.00	0.0672	11.70	514.8	401.45	0.0614	459.6	8.273	15.77	9.14	1.61
	13.28	31.17	73.74	0.00	0.0672	11.71	515.3	401.80	0.0606	454.5	8.181	15.59	8.97	1.61
	14.27	31.17	73.74	-0.00	0.0673	11.73	516.1	402.43	0.0597	446.2	8.032	15.31	8.70	1.62
	15.29	31.15	73.74	-0.00	0.0673	11.73	516.3	402.57	0.0596	441.8	7.953	15.16	8.55	1.61
	16.29	31.17	73.74	0.00	0.0673	11.72	515.6	402.07	0.0603	450.0	8.099	15.44	8.82	1.61
	17.27	31.17	73.77	0.00	0.0673	11.72	515.7	401.97	0.0603	448.3	8.070	15.38	8.77	1.61
	18.28	31.15	73.77	-0.00	0.0673	11.72	515.9	402.07	0.0600	444.8	8.007	15.25	8.65	1.61
	19.28	31.15	73.80	-0.00	0.0672	11.72	515.5	401.66	0.0603	449.1	8.084	15.40	8.79	1.61
	20.28	31.17	73.77	-0.00	0.0672	11.72	515.6	401.88	0.0605	452.5	8.146	15.52	8.90	1.62
	21.26	31.17	73.77	0.00	0.0672	11.71	515.2	401.61	0.0606	454.5	8.182	15.59	8.97	1.61
	22.26	31.14	73.74	0.00	0.0672	11.69	514.2	400.93	0.0613	459.4	8.269	15.76	9.13	1.61
	23.27	31.15	73.74	0.00	0.0672	11.70	514.8	401.39	0.0619	463.8	8.349	15.91	9.27	1.61
	24.26	31.15	73.74	0.00	0.0672	11.70	514.6	401.23	0.0622	468.0	8.424	16.06	9.40	1.61
	25.27	31.11	73.74	0.00	0.0672	11.70	514.7	401.23	0.0623	471.3	8.483	16.17	9.50	1.61
	26.25	31.13	73.74	0.00	0.0672	11.70	514.7	401.26	0.0628	475.3	8.555	16.30	9.63	1.61
	27.30	31.09	73.74	-0.00	0.0672	11.70	514.7	401.24	0.0631	481.4	8.666	16.51	9.82	1.61
	28.30	31.07	73.77	0.00	0.0673	11.71	515.1	401.39	0.0627	475.2	8.554	16.29	9.63	1.61
	29.30	31.08	73.74	-0.00	0.0672	11.70	514.9	401.41	0.0627	476.1	8.570	16.33	9.65	1.61
	30.30	31.07	73.77	-0.00	0.0671	11.69	514.5	400.91	0.0622	469.8	8.456	16.11	9.45	1.61
	31.37	31.07	73.77	-0.00	0.0672	11.68	513.9	400.45	0.0621	468.4	8.431	16.06	9.41	1.61
	32.28	31.12	73.74	0.00	0.0671	11.67	513.7	400.47	0.0618	466.3	8.394	16.00	9.35	1.61
	33.31	31.08	73.77	-0.00	0.0671	11.67	513.7	400.26	0.0619	466.0	8.388	15.98	9.34	1.61
	34.27	31.12	73.80	0.00	0.0671	11.68	513.8	400.28	0.0618	465.5	8.378	15.96	9.32	1.61
	35.29	31.11	73.77	0.00	0.0671	11.67	513.6	400.27	0.0619	466.2	8.391	15.99	9.34	1.61
	36.27	31.15	73.77	0.00	0.0671	11.68	513.8	400.47	0.0622	469.1	8.443	16.09	9.44	1.61
	37.28	31.11	73.74	0.00	0.0671	11.68	513.8	400.53	0.0623	471.3	8.483	16.17	9.50	1.61
	38.27	31.09	73.77	0.00	0.0671	11.67	513.6	400.24	0.0624	472.4	8.504	16.20	9.54	1.61
	39.28	31.08	73.74	0.00	0.0671	11.67	513.4	400.19	0.0624	472.3	8.502	16.20	9.54	1.61
	40.30	31.09	73.77	-0.00	0.0671	11.66	513.2	399.94	0.0625	472.9	8.513	16.22	9.55	1.61
	41.34	31.09	73.74	0.00	0.0670	11.66	513.1	399.98	0.0625	472.9	8.513	16.22	9.55	1.61
	42.29	31.11	73.77	-0.00	0.0670	11.66	512.9	399.71	0.0627	474.2	8.536	16.26	9.60	1.61
	43.27	31.07	73.74	-0.00	0.0670	11.66	513.2	400.03	0.0624	471.2	8.481	16.16	9.50	1.61
	44.29	31.07	73.74	-0.00	0.0670	11.65	512.7	399.68	0.0627	474.1	8.533	16.26	9.59	1.61
	45.29	31.07	73.77	-0.00	0.0670	11.65	512.4	399.30	0.0631	478.9	8.620	16.42	9.74	1.61
	46.28	31.03	73.75	0.00	0.0669	11.64	512.3	399.28	0.0629	478.3	8.609	16.40	9.72	1.61
	47.27	31.08	73.74	0.00	0.0668	11.62	511.2	398.47	0.0643	490.0	8.820	16.81	10.08	1.61
	48.27	30.97	73.74	0.00	0.0667	11.59	509.9	397.32	0.0649	500.3	9.006	17.15	10.39	1.61
	49.27	30.97	73.72	0.00	0.0667	11.58	509.7	397.31	0.0652	501.8	9.032	17.21	10.43	1.61
	50.28	30.97	73.74	0.00	0.0666	11.56	508.6	396.35	0.0662	513.0	9.234	17.59	10.76	1.61
	51.26	30.97	73.75	0.00	0.0666	11.57	509.1	396.72	0.0658	507.7	9.139	17.41	10.61	1.61
	52.28	30.97	73.74	0.00	0.0665	11.56	508.5	396.21	0.0663	512.8	9.230	17.58	10.76	1.61
	53.26	30.97	73.77	0.00	0.0664	11.54	507.8	395.54	0.0665	515.4	9.278	17.67	10.84	1.61
	54.27	30.92	73.77	0.00	0.0664	11.53	507.2	395.06	0.0667	519.4	9.349	17.80	10.95	1.62
	55.29	30.93	73.77	-0.00	0.0665	11.53	507.4	395.21	0.0665	517.1	9.307	17.72	10.88	1.61
	56.27	30.97	73.77	-0.00	0.0664	11.52	506.8	394.75	0.0672	522.2	9.399	17.90	11.03	1.61
	57.28	30.95	73.75	-0.00	0.0665	11.54	507.7	395.57	0.0663	514.5	9.260	17.64	10.81	1.61
	58.28	30.91	73.77	-0.00	0.0665	11.53	507.5	395.23	0.0662	517.0	9.306	17.72	10.88	1.61
	59.28	30.95	73.75	0.00	0.0664	11.52	506.7	394.78	0.0671	525.4	9.458	18.01	11.12	1.61
	60.28	30.90	73.80	-0.00	0.0664	11.51	506.6	394.43	0.0674	525.4	9.456	18.00	11.12	1.62
	61.28	30.95	73.75	0.00	0.0663	11.51	506.4	394.56	0.0674	527.2	9.490	18.08	11.18	1.62
	62.29	30.97	73.75	0.00	0.0664	11.52	506.9	394.96	0.0673	525.9	9.466	18.03	11.14	1.61
	63.29	31.02	73.75	0.00	0.0664	11.52	506.7	394.86	0.0668	523.9	9.430	17.96	11.08	1.62
	64.35	30.99	73.74	0.00	0.0664	11.53	507.3	395.31	0.0665	515.6	9.280	17.68	10.84	1.61
	65.29	30.99	73.74	-0.00	0.0664	11.53	507.1	395.18	0.0666	518.1	9.326	17.77	10.92	1.61
	66.28	30.98	73.74	-0.00	0.0664	11.52	506.7	394.86	0.0669	522.3	9.401	17.91	11.04	1.62
	67.28	30.97	73.77	0.00	0.0664	11.53	507.1	395.03	0.0663	515.6	9.281	17.67	10.84	1.62
	68.27	31.01	73.77	0.00	0.0664	11.51	506.6	394.67	0.0672	525.2	9.454	18.00	11.12	1.61
	69.28	30.99	73.74	0.00	0.0663	11.50	506.0	394.30	0.0674	528.3	9.509	18.11	11.21	1.61
	70.28	30.98	73.80	-0.00	0.0663	11.50	506.2	394.17	0.0672	524.2	9.436	17.96	11.09	1.61
	71.28	30.99	73.77	0.00	0.0663	11.50	506.0	394.22	0.0674	525.9	9.467	18.03	11.14	1.62
	72.26	31.01	73.74	0.00	0.0663	11.49	505.7	394.14	0.0673	526.5	9.477	18.05	11.16	1.62
	73.27	31.01	73.77	0.00	0.0663	11.49	505.7	393.95	0.0674	527.3	9.492	18.08	11.18	1.62
	74.27	31.01	73.77	0.00	0.0663	11.49	505.5	393.80	0.0678	531.4	9.565	18.22	11.30	1.61
	75.29	31.01	73.74	-0.00	0.0662	11.48	505.0	393.54	0.0680	532.5	9.584	18.26	11.33	1.62
	76.28	31.03	73.74	-0.00	0.0661	11.45	503.7	392.59	0.0687	541.2	9.742	18.56	11.58	1.62
	77.27	31.05	73.74	0.00	0.0661	11.44	503.5	392.45	0.0688	542.0	9.757	18.59	11.60	1.62
	78.27	31.02	73.80	0.00	0.0660	11.43	503.1	391.80	0.0688	544.6	9.803	18.66	11.67	1.62
	79.30	31.03	73.74	-0.00	0.0661	11.44	503.2	392.23	0.0689	543.4	9.781	18.64	11.64	1.62
	80.28	30.99	73.77	-0.00	0.0660	11.44	503.1	391.97	0.0685	540.0	9.719	18.51	11.54	1.62
	81.28	31.05	73.75	0.00	0.0659	11.42	502.5	391.64	0.0692	545.3	9.815	18.70	11.69	1.62
	82.28	31.02	73.77	-0.00	0.0660	11.41	502.1	391.20	0.0694	549.7	9.894	18.84	11.81	1.62
	83.27	30.97	73.77	-0.00	0.0659	11.41	501.9	390.95	0.0695	550.5	9.909	18.87	11.83	1.62
	84.27	30.97	73.77	0.00	0.0659	11.41	501.8	390.91	0.0693	549.8	9.897	18.85	11.81	1.62
	85.28	31.02	73.74	-0.00	0.0660	11.42	502.6	391.69	0.0691	546.7	9.841	18.75	11.73	1.62
	86.28	31.02	73.74	0.00	0.0659	11.42	502.3	391.47	0.0695	548.3	9.869	18.80	11.77	1.62
	87.28	30.99	73.75	0.00	0.0658	11.39	501.3	390.65	0.0699	554.2	9.975	19.00	11.93	1.62
	88.28	30.96	73.74	0.00	0.0658	11.38	500.6	390.04	0.0708	561.8	10.113	19.26	12.14	1.62
	89.28	30.94	73.74	0.00	0.0657	11.36	500.0	389.62	0.0707	565.1	10.172	19.37	12.23	1.62
	90.28	30.91	73.74	0.00	0.0657	11.36	499.8	389.40	0.0706	564.2	10.156	19.34	12.20	1.62
	91.29	30.93	73.77	0.00	0.0657	11.38	500.7	389.95	0.0706	561.5	10.107	19.24	12.13	1.62
	92.27	30.96	73.77	0.00	0.0657	11.37	500.1	389.54	0.0707	565.2	10.174	19.37	12.23	1.62
	93.27	30.92	73.74	0.00	0.0657	11.37	500.1	389.61	0.0706	562.7	10.129	19.29	12.16	1.62
	94.29	30.94	73.75	-0.00	0.0658	11.38	500.5	390.00	0.0707	564.3	10.157	19.35	12.20	1.62
	95.27	30.92	73.77	0.00	0.0657	11.37	500.3	389.68	0.0705	562.7	10.128	19.28	12.16	1.62
	96.28	30.95	73.77	-0.00	0.0657	11.36	499.9	389.41	0.0703	559.5	10.070	19.17	12.07	1.62
	97.28	30.97	73.74	-0.00	0.0657	11.36	499.8	389.43	0.0703	560.2	10.084	19.21	12.09	1.62
	98.28	31.00	73.75	0.00	0.0658	11.37	500.5	390.02	0.0704	560.6	10.091	19.22	12.11	1.62
	99.26	31.00	73.77	0.00	0.0657	11.36	499.9	389.44	0.0704	559.8	10.077	19.19	12.09	1.62
	100.28	30.97	73.74	0.00	0.0657	11.35	499.5	389.20	0.0704	560.8	10.094	19.23	12.11	1.62
	101.26	30.97	73.74	0.00	0.0657	11.37	500.1	389.74	0.0704	561.5	10.108	19.25	12.13	1.62
	102.29	30.96	73.74	-0.00	0.0657	11.36	500.1	389.66	0.0704	562.0	10.116	19.27	12.14	1.62
	103.29	30.97	73.77	-0.00	0.0656	11.36	499.7	389.24	0.0706	563.3	10.139	19.31	12.18	1.62
	104.35	30.95	73.74	0.00	0.0656	11.35	499.4	389.09	0.0708	564.8	10.166	19.36	12.22	1.62
	105.28	30.93	73.74	-0.00	0.0656	11.35	499.3	389.02	0.0711	569.4	10.248	19.52	12.34	1.62
	106.28	30.91	73.74	-0.00	0.0657	11.34	499.1	388.81	0.0709	566.2	10.191	19.41	12.25	1.62
	107.28	30.89	73.74	-0.00	0.0657	11.36	500.0	389.56	0.0705	565.8	10.185	19.40	12.24	1.62
	108.26	30.84	73.74	0.00	0.0657	11.35	499.4	389.02	0.0707	565.3	10.176	19.37	12.23	1.62
	109.26	30.81	73.77	0.00	0.0656	11.35	499.5	388.89	0.0709	566.6	10.198	19.41	12.26	1.62
	110.28	30.78	73.75	0.00	0.0657	11.35	499.3	388.85	0.0705	561.2	10.101	19.23	12.11	1.62
	111.28	30.79	73.74	-0.00	0.0656	11.35	499.3	388.83	0.0711	568.3	10.229	19.47	12.30	1.62
	112.29	30.81	73.77	-0.00	0.0656	11.34	499.0	388.51	0.0714	570.9	10.277	19.56	12.38	1.62
	113.27	30.84	73.74	0.00	0.0656	11.34	499.0	388.67	0.0713	572.2	10.300	19.61	12.41	1.62
	114.29	30.85	73.72	0.00	0.0656	11.34	499.0	388.79	0.0712	571.4	10.284	19.59	12.39	1.62
	115.30	30.81	73.72	-0.00	0.0656	11.33	498.7	388.55	0.0711	568.9	10.241	19.50	12.32	1.62
	116.28	30.86	73.75	-0.00	0.0656	11.34	498.9	388.63	0.0711	569.6	10.253	19.52	12.34	1.62
	117.30	30.83	73.74	-0.00	0.0656	11.33	498.6	388.34	0.0709	568.0	10.224	19.47	12.30	1.62
	118.28	30.81	73.74	0.00	0.0655	11.33	498.3	388.13	0.0710	567.7	10.218	19.45	12.29	1.62
	119.29	30.80	73.79	0.00	0.0655	11.32	498.0	387.58	0.0711	569.5	10.252	19.50	12.34	1.62
	120.28	30.81	73.77	0.00	0.0655	11.32	498.2	387.91	0.0712	570.3	10.265	19.54	12.36	1.62
	121.28	30.83	73.74	0.00	0.0655	11.31	497.6	387.58	0.0714	571.2	10.282	19.58	12.38	1.62
	122.27	30.87	73.75	-0.00	0.0655	11.32	498.0	387.89	0.0712	568.0	10.223	19.47	12.30	1.62
	123.27	30.86	73.74	0.00	0.0655	11.31	497.7	387.71	0.0714	573.3	10.319	19.65	12.44	1.62
	124.29	30.89	73.74	-0.00	0.0654	11.31	497.5	387.60	0.0713	572.6	10.307	19.63	12.42	1.63
	125.28	30.89	73.74	-0.00	0.0655	11.30	497.1	387.23	0.0716	573.4	10.320	19.65	12.44	1.62
	126.27	30.87	73.74	0.00	0.0654	11.30	497.2	387.34	0.0717	576.2	10.371	19.75	12.52	1.62
	127.27	30.96	73.82	0.00	0.0654	11.31	497.4	387.20	0.0718	577.8	10.400	19.79	12.56	1.62
	128.26	30.92	73.77	0.00	0.0654	11.29	496.7	386.84	0.0717	575.2	10.353	19.71	12.49	1.62
	129.28	30.91	73.74	0.00	0.0654	11.29	496.9	387.11	0.0718	577.4	10.392	19.79	12.55	1.62
	130.28	30.91	73.74	-0.00	0.0654	11.31	497.5	387.56	0.0717	577.6	10.396	19.80	12.56	1.63
	131.27	30.93	73.77	0.00	0.0654	11.28	496.4	386.63	0.0716	574.8	10.347	19.70	12.48	1.62
	132.26	30.92	73.74	0.00	0.0653	11.30	497.0	387.26	0.0716	575.8	10.365	19.74	12.51	1.62
	133.27	30.94	73.74	0.00	0.0654	11.29	496.8	387.06	0.0718	577.7	10.398	19.81	12.56	1.62
	134.27	30.98	73.74	0.00	0.0654	11.29	496.7	387.07	0.0721	581.6	10.468	19.94	12.66	1.62
	135.27	30.93	73.74	0.00	0.0653	11.28	496.2	386.63	0.0720	579.8	10.436	19.88	12.62	1.62
	136.30	30.98	73.75	-0.00	0.0653	11.28	496.1	386.60	0.0721	583.1	10.495	19.99	12.70	1.63
	137.28	30.93	73.74	0.00	0.0653	11.27	495.9	386.41	0.0723	583.1	10.496	19.99	12.70	1.62
	138.28	30.95	73.77	0.00	0.0652	11.25	495.0	385.58	0.0719	579.7	10.435	19.87	12.62	1.62
	139.29	30.98	73.74	-0.00	0.0653	11.28	496.1	386.61	0.0723	581.9	10.474	19.95	12.67	1.62
	140.28	30.98	73.74	0.00	0.0653	11.28	496.3	386.79	0.0724	582.9	10.492	19.99	12.70	1.62
	141.35	30.89	73.77	0.00	0.0652	11.26	495.3	385.74	0.0726	587.1	10.567	20.12	12.80	1.63
	142.27	30.93	73.75	0.00	0.0653	11.27	495.9	386.34	0.0722	584.4	10.518	20.03	12.74	1.63
	143.29	30.98	73.74	-0.00	0.0653	11.26	495.4	386.04	0.0729	589.2	10.605	20.20	12.86	1.62
	144.27	30.97	73.75	0.00	0.0652	11.24	494.6	385.40	0.0730	592.5	10.665	20.32	12.95	1.62
	145.28	30.94	73.77	0.00	0.0651	11.22	493.9	384.68	0.0737	598.0	10.764	20.49	13.09	1.62
	146.28	30.97	73.75	0.00	0.0651	11.22	493.7	384.70	0.0736	597.4	10.753	20.48	13.07	1.62
	147.26	30.96	73.77	0.00	0.0651	11.25	494.9	385.52	0.0729	591.0	10.637	20.25	12.91	1.63
	148.29	30.97	73.77	-0.00	0.0651	11.24	494.5	385.23	0.0733	595.5	10.720	20.41	13.03	1.63
	149.26	30.97	73.74	0.00	0.0650	11.21	493.0	384.18	0.0737	601.7	10.830	20.63	13.18	1.62
	150.29	30.97	73.77	-0.00	0.0650	11.20	492.9	383.97	0.0737	599.9	10.799	20.56	13.14	1.62
	151.29	30.97	73.74	-0.00	0.0650	11.19	492.3	383.59	0.0740	601.9	10.834	20.64	13.19	1.62
	152.29	30.94	73.82	-0.00	0.0649	11.20	492.7	383.51	0.0740	604.1	10.874	20.69	13.24	1.63
	153.29	30.95	73.77	-0.00	0.0649	11.19	492.2	383.38	0.0742	603.4	10.861	20.68	13.23	1.63
	154.28	30.95	73.77	-0.00	0.0649	11.19	492.4	383.57	0.0743	607.4	10.933	20.82	13.33	1.63
	155.27	30.92	73.77	0.00	0.0650	11.20	492.8	383.83	0.0740	603.1	10.856	20.67	13.22	1.62
	156.27	30.93	73.77	0.00	0.0649	11.20	492.7	383.77	0.0742	603.9	10.870	20.70	13.24	1.63
	157.26	30.91	73.74	0.00	0.0648	11.17	491.6	382.99	0.0751	614.6	11.063	21.07	13.51	1.63
	158.28	30.89	73.74	0.00	0.0648	11.17	491.7	383.02	0.0751	616.1	11.089	21.12	13.54	1.63
	159.26	30.88	73.75	0.00	0.0649	11.18	491.8	383.12	0.0750	617.3	11.111	21.16	13.57	1.63
	160.28	30.89	73.80	0.00	0.0649	11.20	492.8	383.68	0.0738	601.4	10.826	20.60	13.17	1.63
	161.26	30.90	73.74	0.00	0.0649	11.18	492.1	383.34	0.0738	601.4	10.826	20.62	13.17	1.63
