Jul 23 2015 at 9:45:49
Frequency: 1.00Hz.
CO2
Zero:  Value:0.95  Date:18 Mar 2005	 at 07:22:33	
Span:  Value:1.00  Date:18 Mar 2005	 at 07:25:09	
H2O
Zero:  Value:0.71  Date:18 Mar 2005	 at 07:52:31	
Span:  Value:0.99  Date:18 Mar 2005	 at 11:44:01	
	Relative Time	Temperature	Pressure	Aux Input	CO2 Absorptance	CO2 mmol/m3	CO2 mg/m3	CO2 umol/mol	H2O Absorptance	H2O mmol/m3	H2O g/m3	H2O mmol/mol	H2O(°C)	Cooler Voltage
	0.75	25.09	73.74	-0.00	0.0658	11.41	501.9	383.51	0.0780	652.3	11.741	21.93	14.12	1.63
	1.73	25.09	73.72	-0.00	0.0659	11.40	501.6	383.46	0.0781	653.7	11.766	21.99	14.16	1.62
	2.75	25.09	73.72	-0.00	0.0659	11.40	501.7	383.55	0.0782	655.2	11.793	22.04	14.19	1.62
	3.74	25.07	73.72	-0.00	0.0660	11.42	502.7	384.26	0.0777	649.3	11.687	21.84	14.05	1.63
	4.71	25.11	73.74	0.00	0.0661	11.43	503.0	384.44	0.0773	648.1	11.666	21.79	14.03	1.63
	5.74	25.11	73.72	-0.00	0.0664	11.49	505.6	386.52	0.0766	638.2	11.488	21.47	13.79	1.63
	6.74	25.09	73.72	-0.00	0.0666	11.59	509.7	389.68	0.0762	626.7	11.280	21.08	13.51	1.62
	7.72	25.09	73.75	0.00	0.0665	11.51	506.4	387.00	0.0765	638.1	11.485	21.45	13.79	1.63
	8.72	25.09	73.72	0.00	0.0667	11.59	509.9	389.78	0.0758	627.1	11.288	21.09	13.52	1.63
	9.72	25.09	73.72	0.00	0.0670	11.63	511.8	391.27	0.0752	621.3	11.183	20.90	13.38	1.63
	10.72	25.09	73.72	0.00	0.0671	11.64	512.3	391.61	0.0748	620.0	11.161	20.86	13.35	1.63
	11.73	25.09	73.72	-0.00	0.0669	11.63	511.7	391.16	0.0756	622.1	11.198	20.93	13.40	1.63
	12.75	25.09	73.72	-0.00	0.0663	11.52	506.8	387.45	0.0768	635.2	11.434	21.37	13.72	1.62
	13.73	25.07	73.72	-0.00	0.0661	11.46	504.2	385.38	0.0774	644.4	11.599	21.67	13.94	1.63
	14.74	25.07	73.74	-0.00	0.0660	11.42	502.7	384.10	0.0775	646.8	11.643	21.75	14.00	1.63
	15.74	25.05	73.72	0.00	0.0661	11.44	503.4	384.78	0.0768	639.2	11.505	21.50	13.81	1.63
	16.74	25.05	73.72	-0.00	0.0664	11.49	505.6	386.49	0.0757	628.8	11.318	21.15	13.56	1.63
	17.74	25.05	73.74	0.00	0.0664	11.51	506.6	387.10	0.0758	624.2	11.236	20.99	13.45	1.63
	18.72	25.08	73.72	0.00	0.0668	11.58	509.4	389.43	0.0748	616.1	11.089	20.72	13.25	1.63
	19.75	25.05	73.74	-0.00	0.0670	11.63	511.7	391.00	0.0741	606.3	10.913	20.38	13.00	1.63
	20.73	25.02	73.72	-0.00	0.0670	11.66	513.2	392.23	0.0741	604.4	10.879	20.32	12.95	1.63
	21.75	25.06	73.72	-0.00	0.0670	11.66	513.2	392.25	0.0743	606.7	10.920	20.40	13.01	1.63
	22.73	25.04	73.72	0.00	0.0670	11.65	512.5	391.70	0.0748	613.1	11.036	20.62	13.17	1.63
	23.73	25.05	73.72	0.00	0.0670	11.64	512.2	391.49	0.0750	616.7	11.100	20.74	13.26	1.63
	24.73	25.07	73.72	0.00	0.0671	11.66	513.2	392.30	0.0748	615.2	11.073	20.69	13.22	1.63
	25.73	25.06	73.72	0.00	0.0671	11.67	513.3	392.38	0.0749	613.8	11.049	20.64	13.19	1.63
	26.72	25.06	73.72	0.00	0.0679	11.82	520.2	397.62	0.0740	605.4	10.897	20.36	12.98	1.63
	27.74	25.07	73.72	-0.00	0.0680	11.86	521.7	398.81	0.0740	603.9	10.870	20.31	12.94	1.63
	28.74	25.06	73.72	-0.00	0.0678	11.80	519.1	396.80	0.0739	605.1	10.893	20.35	12.97	1.63
	29.73	25.06	73.72	0.00	0.0676	11.80	519.1	396.80	0.0737	601.8	10.832	20.24	12.89	1.63
	30.72	25.07	73.72	0.00	0.0676	11.80	519.2	396.89	0.0738	601.2	10.822	20.22	12.87	1.63
	31.73	25.07	73.72	0.00	0.0676	11.80	519.3	396.98	0.0741	604.4	10.880	20.33	12.95	1.63
	32.74	25.07	73.72	-0.00	0.0674	11.75	516.8	395.03	0.0742	605.6	10.900	20.37	12.98	1.63
	33.74	25.09	73.69	-0.00	0.0679	11.79	518.9	396.83	0.0744	608.4	10.951	20.47	13.05	1.63
	34.71	25.07	73.74	0.00	0.0676	11.79	518.7	396.37	0.0742	607.1	10.928	20.41	13.02	1.63
	35.74	25.09	73.72	-0.00	0.0675	11.77	518.1	396.06	0.0741	604.3	10.878	20.33	12.95	1.63
	36.80	25.09	73.69	0.00	0.0676	11.77	517.8	395.95	0.0740	603.9	10.871	20.32	12.94	1.63
	37.72	25.09	73.74	0.00	0.0676	11.80	519.1	396.70	0.0740	604.3	10.877	20.32	12.95	1.63
	38.73	25.09	73.72	-0.00	0.0675	11.76	517.5	395.56	0.0741	604.0	10.871	20.31	12.94	1.63
	39.73	25.09	73.74	-0.00	0.0675	11.76	517.2	395.26	0.0743	605.9	10.907	20.37	12.99	1.63
	40.73	25.09	73.72	0.00	0.0675	11.77	517.9	395.93	0.0739	603.1	10.856	20.29	12.92	1.63
	41.73	25.09	73.72	-0.00	0.0677	11.81	519.7	397.25	0.0735	599.8	10.796	20.17	12.84	1.63
	42.74	25.09	73.72	-0.00	0.0676	11.79	518.9	396.65	0.0734	596.2	10.731	20.05	12.75	1.63
	43.73	25.09	73.72	-0.00	0.0678	11.82	520.2	397.68	0.0734	595.1	10.712	20.02	12.72	1.63
	44.74	25.09	73.74	-0.00	0.0678	11.84	520.9	398.06	0.0731	594.5	10.701	19.99	12.70	1.63
	45.80	25.09	73.77	0.00	0.0679	11.84	521.1	398.10	0.0729	591.2	10.641	19.87	12.62	1.63
	46.74	25.09	73.72	0.00	0.0679	11.86	521.9	398.99	0.0731	592.0	10.657	19.91	12.64	1.63
	47.74	25.09	73.72	-0.00	0.0680	11.87	522.4	399.32	0.0736	599.2	10.785	20.15	12.82	1.63
	48.73	25.09	73.74	0.00	0.0681	11.88	522.9	399.61	0.0738	599.9	10.798	20.17	12.84	1.63
	49.73	25.11	73.72	-0.00	0.0681	11.89	523.3	400.03	0.0738	602.1	10.838	20.25	12.90	1.63
	50.73	25.13	73.72	0.00	0.0681	11.90	523.7	400.40	0.0738	600.9	10.815	20.21	12.87	1.63
	51.73	25.13	73.72	0.00	0.0680	11.88	522.7	399.64	0.0731	593.7	10.687	19.97	12.68	1.63
	52.81	25.13	73.69	0.00	0.0681	11.90	523.7	400.56	0.0731	592.4	10.664	19.94	12.65	1.63
	53.74	25.13	73.72	-0.00	0.0681	11.91	523.9	400.56	0.0738	601.5	10.827	20.23	12.88	1.63
	54.74	25.13	73.75	0.00	0.0682	11.92	524.5	400.87	0.0737	600.0	10.800	20.18	12.84	1.63
	55.74	25.11	73.72	-0.00	0.0681	11.90	523.8	400.41	0.0735	598.4	10.772	20.13	12.80	1.63
	56.74	25.13	73.72	0.00	0.0682	11.92	524.4	400.93	0.0743	605.4	10.898	20.37	12.98	1.63
	57.74	25.15	73.72	-0.00	0.0684	11.95	525.7	401.94	0.0742	604.8	10.887	20.35	12.97	1.63
	58.73	25.14	73.69	0.00	0.0681	11.91	524.2	400.90	0.0739	603.8	10.868	20.32	12.94	1.63
	59.73	25.12	73.72	0.00	0.0682	11.91	523.8	400.50	0.0741	603.5	10.863	20.30	12.93	1.63
	60.73	25.11	73.72	0.00	0.0681	11.91	523.9	400.53	0.0737	601.5	10.828	20.23	12.88	1.63
	61.73	25.15	73.69	0.00	0.0682	11.92	524.5	401.13	0.0740	603.4	10.862	20.31	12.93	1.63
	62.73	25.14	73.72	0.00	0.0682	11.92	524.5	401.03	0.0741	605.7	10.902	20.38	12.99	1.63
	63.73	25.14	73.75	0.00	0.0682	11.92	524.4	400.80	0.0739	603.4	10.862	20.29	12.93	1.63
	64.74	25.15	73.72	-0.00	0.0681	11.92	524.5	401.01	0.0736	601.3	10.823	20.23	12.88	1.63
	65.74	25.14	73.72	-0.00	0.0682	11.92	524.7	401.14	0.0741	603.9	10.869	20.31	12.94	1.63
	66.74	25.14	73.72	0.00	0.0683	11.94	525.4	401.75	0.0747	608.2	10.947	20.46	13.05	1.63
	67.72	25.12	73.72	0.00	0.0682	11.93	524.8	401.19	0.0745	609.9	10.978	20.52	13.09	1.63
	68.73	25.16	73.74	0.00	0.0681	11.91	523.9	400.46	0.0745	608.9	10.960	20.48	13.07	1.63
	69.72	25.16	73.74	0.00	0.0683	11.94	525.4	401.58	0.0747	612.6	11.027	20.60	13.17	1.63
	70.75	25.15	73.72	-0.00	0.0681	11.91	524.0	400.67	0.0742	605.9	10.906	20.38	12.99	1.63
	71.71	25.16	73.72	0.00	0.0683	11.94	525.4	401.74	0.0747	611.6	11.009	20.58	13.14	1.63
	72.74	25.20	73.72	-0.00	0.0681	11.92	524.5	401.06	0.0747	612.2	11.019	20.60	13.16	1.63
	73.71	25.16	73.72	0.00	0.0683	11.93	524.9	401.39	0.0749	611.6	11.009	20.58	13.14	1.63
	74.74	25.18	73.72	-0.00	0.0683	11.94	525.4	401.75	0.0747	613.3	11.039	20.64	13.18	1.64
	75.72	25.20	73.72	-0.00	0.0681	11.90	523.8	400.58	0.0746	610.6	10.991	20.55	13.12	1.63
	76.74	25.18	73.72	0.00	0.0683	11.94	525.3	401.66	0.0750	616.2	11.091	20.73	13.25	1.63
	77.74	25.18	73.75	0.00	0.0681	11.91	524.2	400.73	0.0745	611.9	11.014	20.58	13.15	1.64
	78.75	25.18	73.72	-0.00	0.0682	11.93	524.9	401.38	0.0746	611.9	11.013	20.59	13.15	1.63
	79.73	25.20	73.74	0.00	0.0683	11.94	525.2	401.53	0.0748	613.5	11.043	20.64	13.19	1.64
	80.73	25.18	73.72	0.00	0.0684	11.97	526.5	402.63	0.0752	618.7	11.136	20.82	13.32	1.64
	81.73	25.20	73.72	0.00	0.0682	11.93	524.8	401.36	0.0750	616.6	11.099	20.75	13.27	1.64
	82.74	25.18	73.72	0.00	0.0681	11.90	523.7	400.50	0.0748	613.8	11.049	20.65	13.20	1.64
	83.74	25.20	73.72	-0.00	0.0683	11.94	525.2	401.63	0.0751	615.7	11.083	20.72	13.24	1.64
	84.74	25.20	73.72	0.00	0.0683	11.95	525.6	401.96	0.0751	617.5	11.116	20.78	13.29	1.64
	85.72	25.22	73.69	0.00	0.0682	11.93	524.8	401.52	0.0751	616.5	11.097	20.75	13.26	1.64
	86.74	25.23	73.72	0.00	0.0683	11.93	525.0	401.52	0.0753	618.3	11.129	20.81	13.31	1.64
	87.72	25.20	73.74	0.00	0.0683	11.96	526.4	402.42	0.0754	621.5	11.187	20.90	13.39	1.64
	88.75	25.20	73.72	0.00	0.0683	11.94	525.3	401.71	0.0753	619.7	11.155	20.85	13.34	1.64
	89.73	25.22	73.72	-0.00	0.0684	11.95	525.9	402.20	0.0756	621.0	11.179	20.90	13.38	1.64
	90.73	25.22	73.72	0.00	0.0683	11.94	525.5	401.86	0.0754	620.4	11.167	20.88	13.36	1.64
	91.73	25.22	73.72	0.00	0.0682	11.94	525.1	401.62	0.0752	619.4	11.149	20.84	13.34	1.64
	92.74	25.21	73.72	-0.00	0.0682	11.92	524.4	401.02	0.0752	617.8	11.120	20.79	13.30	1.64
	93.80	25.24	73.72	-0.00	0.0683	11.94	525.5	401.89	0.0754	620.5	11.168	20.88	13.36	1.64
	94.74	25.24	73.74	-0.00	0.0683	11.94	525.4	401.70	0.0754	620.6	11.172	20.88	13.37	1.64
	95.74	25.23	73.72	-0.00	0.0682	11.93	524.9	401.43	0.0752	618.6	11.135	20.82	13.32	1.64
	96.74	25.22	73.74	-0.00	0.0683	11.95	525.9	402.02	0.0754	620.8	11.174	20.88	13.37	1.64
	97.73	25.20	73.72	-0.00	0.0683	11.95	525.8	402.11	0.0753	619.2	11.145	20.83	13.33	1.64
	98.73	25.23	73.69	-0.00	0.0683	11.94	525.5	402.05	0.0751	618.3	11.130	20.81	13.31	1.64
	99.73	25.24	73.72	-0.00	0.0684	11.97	526.5	402.65	0.0758	624.7	11.244	21.02	13.47	1.64
	100.73	25.24	73.72	0.00	0.0684	11.97	526.8	402.93	0.0759	627.2	11.290	21.11	13.53	1.64
	101.73	25.24	73.72	-0.00	0.0683	11.95	526.0	402.26	0.0758	625.4	11.257	21.05	13.49	1.64
	102.74	25.24	73.72	-0.00	0.0684	11.97	526.5	402.68	0.0760	626.7	11.280	21.09	13.52	1.64
	103.71	25.24	73.72	0.00	0.0682	11.93	524.9	401.46	0.0756	623.9	11.231	21.00	13.45	1.64
	104.72	25.23	73.72	0.00	0.0684	11.95	525.6	402.02	0.0759	625.8	11.265	21.06	13.50	1.64
	105.74	25.24	73.72	-0.00	0.0685	11.99	527.5	403.46	0.0763	632.0	11.375	21.27	13.65	1.64
	106.74	25.25	73.74	0.00	0.0686	12.00	528.0	403.74	0.0765	633.4	11.402	21.31	13.68	1.64
	107.73	25.21	73.72	0.00	0.0684	11.98	527.3	403.28	0.0762	630.9	11.356	21.23	13.62	1.64
	108.75	25.28	73.74	-0.00	0.0684	11.97	526.7	402.72	0.0761	629.4	11.329	21.18	13.59	1.64
	109.81	25.25	73.69	-0.00	0.0683	11.96	526.0	402.49	0.0759	627.1	11.288	21.11	13.53	1.64
	110.75	25.24	73.72	-0.00	0.0684	11.97	526.6	402.72	0.0763	630.9	11.356	21.23	13.62	1.64
	111.73	25.25	73.77	0.00	0.0685	11.99	527.5	403.16	0.0765	633.5	11.402	21.30	13.68	1.64
	112.73	25.28	73.72	0.00	0.0684	11.98	527.2	403.26	0.0763	633.6	11.405	21.33	13.69	1.64
	113.72	25.25	73.72	0.00	0.0684	11.98	526.9	403.05	0.0762	630.0	11.341	21.20	13.60	1.64
	114.74	25.27	73.72	-0.00	0.0683	11.95	525.9	402.25	0.0762	631.4	11.366	21.25	13.63	1.64
	115.72	25.27	73.72	0.00	0.0684	11.97	526.8	402.99	0.0763	631.5	11.368	21.26	13.64	1.64
	116.74	25.27	73.69	0.00	0.0683	11.96	526.4	402.80	0.0762	631.1	11.359	21.25	13.63	1.64
	117.72	25.30	73.72	0.00	0.0685	12.00	527.8	403.78	0.0765	634.0	11.412	21.34	13.70	1.64
	118.75	25.31	73.69	-0.00	0.0684	11.99	527.4	403.57	0.0762	634.0	11.412	21.35	13.70	1.64
	119.73	25.36	73.74	-0.00	0.0684	11.97	526.8	402.96	0.0763	632.1	11.377	21.27	13.65	1.64
