Jul 23 2015 at 10:38:53
Frequency: 1.00Hz.
CO2
Zero:  Value:0.95  Date:18 Mar 2005	 at 07:22:33	
Span:  Value:1.00  Date:18 Mar 2005	 at 07:25:09	
H2O
Zero:  Value:0.71  Date:18 Mar 2005	 at 07:52:31	
Span:  Value:0.99  Date:18 Mar 2005	 at 11:44:01	
	Relative Time	Temperature	Pressure	Aux Input	CO2 Absorptance	CO2 mmol/m3	CO2 mg/m3	CO2 umol/mol	H2O Absorptance	H2O mmol/m3	H2O g/m3	H2O mmol/mol	H2O(°C)	Cooler Voltage
	0.47	32.09	73.77	-0.00	0.0681	11.89	523.3	409.16	0.0559	403.3	7.259	13.87	7.25	1.70
	1.47	32.13	73.77	0.00	0.0680	11.88	522.9	408.91	0.0559	404.5	7.281	13.92	7.30	1.70
	2.46	32.11	73.74	-0.00	0.0680	11.89	523.2	409.23	0.0560	405.2	7.293	13.94	7.32	1.70
	3.45	32.14	73.74	0.00	0.0681	11.90	523.5	409.50	0.0563	407.3	7.332	14.02	7.40	1.70
	4.45	32.11	73.77	0.00	0.0681	11.91	523.9	409.65	0.0569	415.1	7.472	14.28	7.68	1.70
	5.46	32.14	73.77	0.00	0.0680	11.87	522.2	408.34	0.0567	411.6	7.409	14.16	7.56	1.70
	6.47	32.13	73.77	-0.00	0.0680	11.87	522.4	408.48	0.0568	412.6	7.426	14.19	7.59	1.70
	7.46	32.13	73.75	0.00	0.0679	11.87	522.1	408.38	0.0568	415.3	7.475	14.29	7.69	1.70
	8.47	32.11	73.74	-0.00	0.0678	11.84	521.0	407.54	0.0566	412.0	7.417	14.18	7.57	1.70
	9.48	32.13	73.77	-0.00	0.0680	11.85	521.6	407.87	0.0575	418.6	7.535	14.40	7.80	1.70
	10.47	32.18	73.77	-0.00	0.0678	11.84	521.1	407.52	0.0571	418.4	7.530	14.40	7.80	1.70
	11.45	32.18	73.74	0.00	0.0678	11.82	520.1	406.91	0.0573	417.6	7.517	14.38	7.77	1.70
	12.46	32.18	73.77	0.00	0.0680	11.86	522.1	408.29	0.0575	420.7	7.572	14.48	7.88	1.70
	13.48	32.18	73.77	-0.00	0.0682	11.92	524.6	410.27	0.0577	422.9	7.613	14.55	7.96	1.70
	14.46	32.15	73.74	0.00	0.0681	11.90	523.6	409.63	0.0575	421.6	7.589	14.51	7.91	1.70
	15.44	32.15	73.74	0.00	0.0679	11.85	521.6	408.00	0.0572	417.4	7.514	14.37	7.76	1.70
	16.54	32.18	73.75	0.00	0.0682	11.90	523.7	409.70	0.0575	420.0	7.560	14.46	7.85	1.70
	17.44	32.18	73.77	0.00	0.0687	12.01	528.4	413.22	0.0578	423.0	7.614	14.56	7.96	1.70
	18.47	32.13	73.77	0.00	0.0690	12.10	532.6	416.45	0.0580	426.3	7.673	14.67	8.07	1.70
	19.53	32.13	73.75	0.00	0.0690	12.10	532.4	416.48	0.0581	426.8	7.682	14.69	8.09	1.70
	20.47	32.13	73.74	-0.00	0.0690	12.11	532.9	416.85	0.0585	431.2	7.761	14.84	8.24	1.70
	21.47	32.13	73.77	-0.00	0.0690	12.12	533.3	417.03	0.0585	430.9	7.757	14.83	8.23	1.70
	22.46	32.16	73.74	-0.00	0.0690	12.08	531.5	415.82	0.0583	428.6	7.715	14.75	8.15	1.70
	23.48	32.13	73.77	-0.00	0.0690	12.11	533.0	416.75	0.0581	427.3	7.691	14.70	8.10	1.70
	24.46	32.15	73.77	-0.00	0.0686	12.02	528.9	413.57	0.0578	423.0	7.614	14.55	7.96	1.70
	25.46	32.15	73.74	0.00	0.0687	12.03	529.1	413.91	0.0579	424.1	7.633	14.60	7.99	1.70
	26.44	32.15	73.74	0.00	0.0689	12.10	532.4	416.50	0.0587	432.0	7.775	14.87	8.26	1.70
	27.46	32.17	73.74	0.00	0.0689	12.09	531.9	416.14	0.0585	431.1	7.760	14.84	8.24	1.70
	28.45	32.15	73.74	0.00	0.0689	12.05	530.1	414.67	0.0585	432.3	7.782	14.88	8.28	1.71
	29.45	32.18	73.77	0.00	0.0684	11.99	527.4	412.47	0.0577	425.6	7.661	14.65	8.05	1.70
	30.53	32.20	73.77	-0.00	0.0686	12.06	530.4	414.86	0.0579	427.7	7.698	14.72	8.12	1.70
	31.47	32.19	73.72	-0.00	0.0685	12.03	529.2	414.14	0.0575	426.1	7.670	14.67	8.07	1.70
	32.46	32.15	73.74	-0.00	0.0684	11.97	526.6	411.97	0.0573	419.2	7.546	14.43	7.82	1.70
	33.46	32.22	73.77	-0.00	0.0686	12.00	528.0	412.99	0.0580	424.4	7.640	14.61	8.01	1.70
	34.48	32.15	73.74	-0.00	0.0685	12.00	528.2	413.19	0.0579	427.0	7.686	14.70	8.09	1.71
	35.46	32.17	73.80	-0.00	0.0683	11.95	525.9	411.15	0.0572	418.0	7.524	14.38	7.78	1.70
	36.47	32.15	73.77	-0.00	0.0683	11.94	525.5	410.97	0.0574	420.5	7.569	14.47	7.87	1.70
	37.46	32.15	73.77	0.00	0.0683	11.92	524.6	410.26	0.0573	415.6	7.481	14.30	7.70	1.70
	38.45	32.13	73.74	0.00	0.0685	12.01	528.3	413.24	0.0580	428.0	7.703	14.73	8.13	1.70
	39.55	32.18	73.77	0.00	0.0687	12.03	529.2	413.87	0.0579	426.9	7.684	14.69	8.09	1.71
	40.45	32.15	73.74	0.00	0.0686	12.03	529.2	413.99	0.0594	446.6	8.038	15.37	8.76	1.71
	41.47	32.18	73.77	0.00	0.0688	12.07	531.0	415.28	0.0602	453.2	8.158	15.60	8.98	1.70
	42.53	32.15	73.77	0.00	0.0688	12.05	530.3	414.72	0.0593	440.3	7.926	15.15	8.55	1.70
	43.45	32.20	73.77	0.00	0.0685	12.01	528.3	413.19	0.0582	433.0	7.794	14.90	8.30	1.70
	44.46	32.17	73.77	-0.00	0.0686	12.03	529.5	414.11	0.0582	428.2	7.707	14.73	8.14	1.70
	45.46	32.17	73.77	-0.00	0.0687	12.05	530.3	414.75	0.0588	436.1	7.849	15.01	8.41	1.71
	46.47	32.18	73.80	-0.00	0.0690	12.12	533.3	416.90	0.0613	462.8	8.331	15.92	9.29	1.70
	47.47	32.17	73.74	-0.00	0.0690	12.12	533.4	417.29	0.0610	459.9	8.279	15.83	9.19	1.70
	48.47	32.17	73.74	-0.00	0.0690	12.08	531.4	415.70	0.0602	441.4	7.945	15.19	8.58	1.70
	49.45	32.20	73.80	-0.00	0.0687	12.01	528.6	413.26	0.0581	427.0	7.686	14.69	8.10	1.70
	50.47	32.17	73.77	-0.00	0.0687	12.02	528.8	413.59	0.0592	428.0	7.705	14.73	8.13	1.70
	51.47	32.20	73.74	0.00	0.0688	12.11	532.7	416.78	0.0593	455.3	8.196	15.68	9.05	1.71
	52.45	32.19	73.77	0.00	0.0688	12.05	530.1	414.55	0.0594	435.1	7.831	14.97	8.37	1.71
	53.46	32.20	73.77	0.00	0.0686	12.01	528.3	413.18	0.0581	427.9	7.701	14.72	8.13	1.70
	54.46	32.17	73.72	0.00	0.0687	12.03	529.3	414.23	0.0585	431.9	7.774	14.87	8.26	1.70
	55.47	32.20	73.77	-0.00	0.0688	12.06	530.5	414.92	0.0607	444.5	8.001	15.30	8.69	1.70
	56.46	32.22	73.77	-0.00	0.0688	12.06	530.7	415.09	0.0601	447.7	8.059	15.41	8.80	1.70
	57.45	32.20	73.77	0.00	0.0691	12.14	534.0	417.64	0.0619	468.5	8.433	16.12	9.47	1.71
	58.53	32.22	73.74	-0.00	0.0690	12.11	532.7	416.83	0.0618	461.9	8.313	15.90	9.26	1.70
	59.47	32.24	73.77	-0.00	0.0688	12.07	531.1	415.42	0.0603	449.0	8.082	15.45	8.84	1.70
	60.47	32.20	73.74	-0.00	0.0687	12.06	530.5	415.02	0.0603	450.6	8.111	15.51	8.89	1.70
	61.47	32.19	73.75	-0.00	0.0687	12.05	530.3	414.85	0.0594	445.8	8.024	15.35	8.73	1.70
	62.45	32.19	73.77	0.00	0.0687	12.05	530.1	414.58	0.0596	442.6	7.967	15.23	8.63	1.70
	63.46	32.20	73.74	0.00	0.0689	12.09	532.1	416.30	0.0609	459.4	8.269	15.81	9.18	1.71
	64.46	32.20	73.77	-0.00	0.0689	12.11	533.0	416.87	0.0617	469.9	8.457	16.17	9.51	1.70
	65.46	32.20	73.74	0.00	0.0687	12.05	530.0	414.65	0.0596	445.7	8.022	15.34	8.73	1.70
	66.44	32.22	73.77	0.00	0.0688	12.05	530.1	414.66	0.0601	445.1	8.013	15.32	8.71	1.70
	67.45	32.22	73.77	0.00	0.0689	12.06	530.7	415.08	0.0606	452.6	8.147	15.58	8.96	1.70
	68.45	32.22	73.74	0.00	0.0688	12.08	531.4	415.78	0.0612	460.8	8.295	15.86	9.22	1.71
	69.48	32.24	73.74	0.00	0.0688	12.06	530.8	415.37	0.0598	444.9	8.008	15.32	8.71	1.70
	70.47	32.24	73.77	-0.00	0.0688	12.06	530.5	414.95	0.0611	444.6	8.002	15.30	8.69	1.70
	71.48	32.22	73.77	-0.00	0.0690	12.08	531.3	415.59	0.0623	467.1	8.407	16.08	9.43	1.70
	72.46	32.20	73.77	0.00	0.0688	12.09	531.7	415.89	0.0602	456.5	8.217	15.71	9.08	1.71
	73.48	32.22	73.77	-0.00	0.0689	12.09	531.9	416.01	0.0602	447.8	8.060	15.41	8.80	1.70
	74.46	32.24	73.77	-0.00	0.0689	12.08	531.4	415.68	0.0601	447.3	8.051	15.39	8.78	1.71
	75.47	32.20	73.74	-0.00	0.0689	12.09	532.1	416.31	0.0603	449.2	8.086	15.46	8.85	1.71
	76.47	32.22	73.74	-0.00	0.0688	12.07	530.9	415.42	0.0602	448.9	8.080	15.45	8.84	1.70
	77.47	32.22	73.75	0.00	0.0688	12.07	531.2	415.65	0.0603	450.5	8.108	15.51	8.89	1.71
	78.45	32.22	73.77	0.00	0.0689	12.08	531.4	415.62	0.0617	461.5	8.307	15.88	9.25	1.71
	79.47	32.20	73.74	0.00	0.0690	12.10	532.4	416.57	0.0638	485.7	8.743	16.72	10.01	1.71
	80.45	32.22	73.75	0.00	0.0690	12.10	532.6	416.73	0.0626	482.8	8.690	16.62	9.92	1.71
	81.46	32.21	73.77	-0.00	0.0688	12.05	530.2	414.69	0.0605	452.0	8.135	15.55	8.94	1.71
	82.46	32.22	73.74	-0.00	0.0686	11.98	527.2	412.53	0.0615	453.0	8.154	15.60	8.97	1.71
	83.46	32.22	73.77	0.00	0.0688	12.06	530.5	414.94	0.0610	458.0	8.244	15.76	9.13	1.70
	84.46	32.22	73.77	-0.00	0.0688	12.06	530.7	415.10	0.0618	469.4	8.449	16.15	9.50	1.71
	85.46	32.20	73.74	0.00	0.0689	12.07	531.1	415.57	0.0637	481.1	8.660	16.56	9.87	1.70
	86.46	32.20	73.74	-0.00	0.0688	12.06	530.7	415.23	0.0616	465.4	8.377	16.02	9.37	1.71
	87.44	32.22	73.74	0.00	0.0688	12.07	531.0	415.50	0.0622	470.2	8.463	16.19	9.52	1.71
	88.45	32.22	73.77	0.00	0.0688	12.06	530.7	415.10	0.0615	465.4	8.377	16.02	9.37	1.71
	89.44	32.22	73.77	0.00	0.0689	12.08	531.4	415.64	0.0623	470.6	8.470	16.19	9.54	1.71
	90.54	32.22	73.72	-0.00	0.0688	12.07	530.9	415.57	0.0630	474.5	8.540	16.34	9.66	1.70
	91.45	32.22	73.74	0.00	0.0688	12.05	530.3	414.93	0.0618	465.4	8.377	16.02	9.37	1.71
	92.48	32.24	73.77	-0.00	0.0688	12.07	530.9	415.30	0.0632	480.4	8.646	16.53	9.84	1.71
	93.44	32.26	73.77	0.00	0.0689	12.08	531.4	415.68	0.0637	487.9	8.782	16.79	10.08	1.71
	94.47	32.21	73.74	0.00	0.0688	12.06	530.9	415.35	0.0639	489.3	8.807	16.84	10.12	1.71
	95.46	32.20	73.77	-0.00	0.0688	12.05	530.4	414.82	0.0636	484.6	8.723	16.68	9.97	1.71
	96.47	32.19	73.74	-0.00	0.0688	12.06	530.5	415.06	0.0643	493.0	8.874	16.97	10.23	1.71
	97.55	32.24	73.74	-0.00	0.0688	12.06	530.5	415.13	0.0633	485.7	8.742	16.72	10.01	1.71
	98.45	32.26	73.77	0.00	0.0688	12.05	530.2	414.80	0.0620	469.5	8.451	16.16	9.50	1.71
	99.47	32.26	73.74	-0.00	0.0688	12.05	530.1	414.81	0.0627	474.6	8.542	16.34	9.66	1.70
	100.45	32.24	73.75	0.00	0.0687	12.05	530.0	414.72	0.0623	470.0	8.461	16.18	9.52	1.71
	101.45	32.26	73.77	0.00	0.0688	12.05	530.4	414.88	0.0637	484.6	8.723	16.68	9.98	1.71
	102.52	32.24	73.77	0.00	0.0688	12.05	530.1	414.65	0.0624	473.5	8.522	16.30	9.63	1.71
	103.44	32.26	73.74	0.00	0.0688	12.04	529.9	414.66	0.0623	471.2	8.482	16.22	9.56	1.71
	104.46	32.23	73.75	0.00	0.0687	12.04	529.7	414.43	0.0626	471.7	8.491	16.24	9.57	1.71
	105.46	32.26	73.74	0.00	0.0688	12.07	531.2	415.73	0.0626	474.4	8.539	16.33	9.66	1.71
	106.45	32.25	73.74	0.00	0.0686	12.03	529.1	414.05	0.0623	469.9	8.458	16.18	9.52	1.71
	107.44	32.26	73.74	0.00	0.0687	12.04	529.9	414.67	0.0626	472.3	8.502	16.26	9.59	1.71
	108.45	32.26	73.74	0.00	0.0686	12.03	529.1	414.07	0.0623	471.4	8.485	16.23	9.56	1.71
	109.45	32.28	73.74	-0.00	0.0687	12.03	529.1	414.11	0.0628	479.1	8.623	16.50	9.81	1.71
	110.47	32.30	73.74	-0.00	0.0687	12.03	529.2	414.17	0.0633	483.1	8.696	16.64	9.93	1.71
	111.45	32.26	73.75	0.00	0.0686	12.01	528.4	413.46	0.0628	474.1	8.534	16.32	9.65	1.71
	112.45	32.26	73.77	0.00	0.0685	11.98	527.0	412.28	0.0631	478.7	8.616	16.48	9.79	1.71
	113.44	32.28	73.74	0.00	0.0686	12.00	527.8	413.07	0.0638	485.1	8.732	16.71	9.99	1.71
	114.52	32.25	73.74	0.00	0.0686	12.01	528.5	413.57	0.0635	478.5	8.614	16.48	9.79	1.71
	115.47	32.28	73.80	-0.00	0.0688	12.06	530.5	414.88	0.0635	481.7	8.671	16.58	9.89	1.71
	116.45	32.26	73.74	0.00	0.0685	12.01	528.3	413.38	0.0634	478.7	8.617	16.48	9.79	1.71
	117.47	32.26	73.74	-0.00	0.0686	12.02	528.9	413.87	0.0633	481.8	8.672	16.59	9.89	1.71
	118.45	32.26	73.77	0.00	0.0686	12.02	528.7	413.58	0.0634	481.6	8.669	16.58	9.88	1.71
	119.44	32.26	73.69	0.00	0.0685	11.99	527.7	413.20	0.0631	479.9	8.638	16.53	9.83	1.71
	120.45	32.23	73.80	0.00	0.0686	12.01	528.4	413.16	0.0632	479.9	8.638	16.51	9.83	1.71
	121.45	32.28	73.74	0.00	0.0684	11.98	527.3	412.65	0.0635	483.9	8.710	16.66	9.95	1.71
	122.46	32.26	73.74	0.00	0.0686	12.02	528.9	413.90	0.0635	484.8	8.727	16.69	9.98	1.71
	123.46	32.26	73.77	-0.00	0.0686	12.03	529.1	413.93	0.0635	484.3	8.718	16.67	9.97	1.71
	124.47	32.28	73.77	-0.00	0.0686	12.02	529.1	413.89	0.0637	485.4	8.737	16.71	10.00	1.71
