Jul 25 2015 at 13:33:08
Frequency: 1.00Hz.
CO2
Zero:  Value:0.95  Date:18 Mar 2005	 at 07:22:33	
Span:  Value:1.00  Date:18 Mar 2005	 at 07:25:09	
H2O
Zero:  Value:0.71  Date:18 Mar 2005	 at 07:52:31	
Span:  Value:0.99  Date:18 Mar 2005	 at 11:44:01	
	Relative Time	Temperature	Pressure	Aux Input	CO2 Absorptance	CO2 mmol/m3	CO2 mg/m3	CO2 umol/mol	H2O Absorptance	H2O mmol/m3	H2O g/m3	H2O mmol/mol	H2O(°C)	Cooler Voltage
	0.89	30.80	70.30	0.00	0.0630	10.94	481.2	393.11	0.0637	499.6	8.992	17.96	10.36	1.67
	1.89	30.73	70.25	0.00	0.0629	10.92	480.3	392.54	0.0632	489.3	8.807	17.60	10.04	1.66
	2.89	30.75	70.25	0.00	0.0631	10.94	481.3	393.38	0.0627	480.4	8.648	17.28	9.77	1.66
	3.88	30.75	70.28	0.00	0.0631	10.95	482.0	393.80	0.0624	484.1	8.715	17.41	9.89	1.67
	4.96	30.75	70.28	-0.00	0.0632	10.98	483.0	394.63	0.0599	464.5	8.361	16.70	9.27	1.67
	5.90	30.77	70.28	0.00	0.0633	10.98	482.9	394.59	0.0606	462.8	8.330	16.64	9.22	1.67
	6.88	30.77	70.30	0.00	0.0631	10.93	481.1	393.00	0.0603	459.2	8.265	16.50	9.10	1.67
	7.88	30.81	70.28	0.00	0.0631	10.94	481.5	393.46	0.0601	456.6	8.219	16.42	9.02	1.66
	8.88	30.79	70.28	0.00	0.0630	10.92	480.3	392.46	0.0602	456.8	8.223	16.43	9.03	1.66
	9.88	30.81	70.30	0.00	0.0632	10.95	481.6	393.44	0.0601	456.5	8.216	16.41	9.01	1.67
	10.97	30.79	70.28	0.00	0.0631	10.95	481.9	393.79	0.0601	457.3	8.231	16.44	9.04	1.67
	11.89	30.81	70.28	0.00	0.0630	10.91	479.9	392.21	0.0594	449.8	8.097	16.17	8.80	1.67
	12.90	30.84	70.31	-0.00	0.0629	10.91	480.1	392.20	0.0595	450.0	8.100	16.18	8.80	1.66
	13.88	30.81	70.28	0.00	0.0629	10.89	479.3	391.72	0.0595	451.4	8.126	16.23	8.85	1.67
	14.88	30.86	70.28	-0.00	0.0630	10.92	480.4	392.65	0.0598	453.2	8.157	16.30	8.91	1.67
	15.90	30.83	70.28	-0.00	0.0631	10.94	481.1	393.24	0.0600	455.0	8.191	16.36	8.97	1.67
	16.88	30.81	70.28	-0.00	0.0630	10.93	480.8	392.93	0.0595	452.1	8.137	16.26	8.87	1.67
	17.88	30.85	70.30	0.00	0.0629	10.90	479.4	391.72	0.0595	449.3	8.087	16.15	8.78	1.67
	18.89	30.82	70.28	0.00	0.0629	10.91	479.9	392.21	0.0598	453.2	8.157	16.30	8.91	1.67
	19.88	30.88	70.28	0.00	0.0629	10.90	479.7	392.08	0.0599	454.3	8.178	16.34	8.95	1.67
	20.89	30.87	70.28	0.00	0.0630	10.91	480.0	392.36	0.0601	456.6	8.219	16.42	9.02	1.67
	21.90	30.88	70.30	0.00	0.0630	10.93	480.8	392.87	0.0601	457.6	8.236	16.45	9.05	1.67
	22.90	30.88	70.28	-0.00	0.0629	10.92	480.4	392.68	0.0601	459.2	8.266	16.52	9.11	1.67
	23.88	30.87	70.28	0.00	0.0631	10.93	480.9	393.05	0.0603	459.1	8.265	16.51	9.10	1.67
	24.88	30.88	70.23	0.00	0.0632	10.94	481.2	393.62	0.0605	459.9	8.278	16.55	9.13	1.67
	25.88	30.86	70.28	0.00	0.0631	10.93	481.0	393.20	0.0604	460.4	8.288	16.56	9.15	1.67
	26.89	30.87	70.28	-0.00	0.0631	10.93	481.1	393.24	0.0603	459.0	8.262	16.51	9.10	1.67
	27.97	30.90	70.25	-0.00	0.0632	10.95	482.0	394.13	0.0606	461.6	8.308	16.61	9.18	1.67
	28.88	30.90	70.28	0.00	0.0632	10.96	482.3	394.27	0.0606	462.6	8.327	16.64	9.22	1.67
	29.97	30.88	70.30	-0.00	0.0633	10.97	482.7	394.45	0.0609	465.3	8.375	16.73	9.30	1.67
	30.89	30.90	70.25	-0.00	0.0633	10.98	483.3	395.20	0.0610	466.5	8.398	16.79	9.34	1.67
	31.89	30.88	70.28	0.00	0.0632	10.97	482.6	394.45	0.0610	465.8	8.384	16.75	9.32	1.67
	32.88	30.89	70.30	0.00	0.0633	10.97	482.6	394.33	0.0613	467.7	8.419	16.82	9.38	1.67
	33.90	30.88	70.30	-0.00	0.0635	11.02	484.9	396.25	0.0617	472.8	8.511	17.00	9.54	1.67
	34.88	30.94	70.28	-0.00	0.0636	11.05	486.1	397.40	0.0619	476.1	8.569	17.13	9.65	1.67
	35.90	30.91	70.28	0.00	0.0636	11.05	486.1	397.41	0.0619	476.8	8.583	17.15	9.67	1.67
	36.90	30.93	70.28	-0.00	0.0635	11.03	485.3	396.75	0.0617	474.4	8.540	17.07	9.59	1.67
	37.89	30.93	70.28	0.00	0.0635	11.03	485.1	396.60	0.0617	473.6	8.526	17.04	9.57	1.67
	38.89	30.94	70.28	0.00	0.0634	11.02	484.8	396.34	0.0616	473.0	8.515	17.02	9.55	1.67
	39.95	30.96	70.25	0.00	0.0634	11.01	484.4	396.17	0.0616	472.6	8.506	17.01	9.54	1.67
	40.89	30.92	70.28	0.00	0.0634	11.02	485.0	396.48	0.0616	473.7	8.527	17.04	9.57	1.67
	41.95	30.94	70.28	0.00	0.0636	11.05	486.3	397.61	0.0624	481.1	8.659	17.31	9.80	1.67
	42.90	30.97	70.30	0.00	0.0637	11.06	486.7	397.82	0.0633	490.5	8.829	17.64	10.09	1.67
	43.88	30.95	70.25	-0.00	0.0638	11.07	487.3	398.56	0.0638	496.7	8.941	17.88	10.28	1.67
	44.88	30.90	70.28	0.00	0.0638	11.08	487.6	398.61	0.0633	490.6	8.831	17.65	10.09	1.67
	45.88	30.97	70.28	-0.00	0.0638	11.11	488.7	399.61	0.0646	501.9	9.034	18.06	10.44	1.67
	46.89	30.95	70.25	-0.00	0.0637	11.05	486.2	397.68	0.0639	495.5	8.918	17.83	10.24	1.67
	47.86	30.96	70.28	0.00	0.0637	11.07	487.2	398.34	0.0644	503.2	9.057	18.10	10.47	1.67
	48.89	30.97	70.31	-0.00	0.0637	11.07	487.1	398.11	0.0651	511.9	9.215	18.41	10.73	1.67
	49.91	30.95	70.25	-0.00	0.0637	11.08	487.5	398.72	0.0651	511.4	9.205	18.40	10.72	1.67
	50.90	30.95	70.28	-0.00	0.0636	11.06	486.6	397.80	0.0648	509.3	9.168	18.32	10.66	1.67
	51.89	30.97	70.30	0.00	0.0636	11.06	486.5	397.62	0.0647	508.6	9.155	18.29	10.64	1.67
	52.88	30.96	70.28	0.00	0.0636	11.05	486.3	397.62	0.0647	507.9	9.143	18.27	10.62	1.67
	53.88	30.95	70.26	0.00	0.0637	11.06	486.7	398.03	0.0653	514.3	9.257	18.51	10.80	1.67
	54.88	30.99	70.28	0.00	0.0636	11.06	486.6	397.89	0.0651	512.9	9.232	18.45	10.76	1.67
	55.90	30.97	70.28	-0.00	0.0635	11.05	486.3	397.65	0.0650	510.7	9.192	18.37	10.70	1.67
	56.88	30.99	70.28	0.00	0.0635	11.03	485.4	396.90	0.0649	510.7	9.193	18.38	10.70	1.67
	57.89	30.97	70.30	0.00	0.0634	11.01	484.4	395.96	0.0649	510.9	9.197	18.38	10.70	1.67
	58.89	30.95	70.25	0.00	0.0634	11.02	484.8	396.51	0.0649	510.3	9.185	18.36	10.68	1.67
	59.87	30.97	70.28	0.00	0.0635	11.03	485.3	396.83	0.0659	520.3	9.365	18.72	10.98	1.67
	60.89	30.97	70.28	-0.00	0.0636	11.06	486.5	397.84	0.0661	522.0	9.396	18.78	11.03	1.67
	61.89	31.00	70.28	-0.00	0.0635	11.02	485.0	396.60	0.0661	524.3	9.438	18.86	11.09	1.67
	62.88	30.97	70.28	0.00	0.0633	10.98	482.9	394.85	0.0644	505.9	9.105	18.20	10.55	1.67
	63.88	31.00	70.30	0.00	0.0634	11.00	483.8	395.51	0.0650	509.1	9.164	18.31	10.65	1.67
	64.96	30.99	70.25	-0.00	0.0636	11.04	485.6	397.26	0.0658	520.8	9.374	18.74	10.99	1.67
	65.88	30.99	70.28	0.00	0.0635	11.01	484.5	396.20	0.0657	515.8	9.285	18.56	10.85	1.67
	66.89	30.98	70.25	-0.00	0.0635	11.01	484.5	396.29	0.0660	520.0	9.360	18.71	10.97	1.67
	67.88	30.98	70.25	0.00	0.0635	11.03	485.2	396.86	0.0656	518.0	9.323	18.64	10.91	1.67
	68.89	30.98	70.28	0.00	0.0635	11.02	484.8	396.44	0.0654	515.7	9.282	18.55	10.84	1.67
	69.90	31.01	70.28	-0.00	0.0631	10.94	481.5	393.72	0.0650	510.1	9.182	18.35	10.68	1.67
	70.89	31.01	70.25	0.00	0.0634	11.00	484.2	396.09	0.0657	519.3	9.347	18.69	10.95	1.67
	71.89	30.99	70.28	0.00	0.0635	11.02	484.9	396.48	0.0663	523.4	9.422	18.83	11.07	1.67
	72.88	31.01	70.28	-0.00	0.0634	11.01	484.6	396.25	0.0658	520.0	9.359	18.71	10.97	1.67
	73.88	31.03	70.28	0.00	0.0634	11.00	483.9	395.73	0.0655	518.2	9.328	18.65	10.92	1.67
	74.88	31.05	70.31	-0.00	0.0634	11.01	484.3	395.98	0.0660	522.9	9.413	18.81	11.06	1.67
	75.88	31.06	70.28	0.00	0.0630	10.93	480.9	393.33	0.0643	505.7	9.102	18.20	10.55	1.67
	76.88	31.01	70.28	-0.00	0.0630	10.93	481.0	393.34	0.0645	506.8	9.123	18.24	10.59	1.67
	77.88	31.03	70.31	0.00	0.0631	10.94	481.2	393.41	0.0641	502.2	9.040	18.07	10.45	1.67
	78.95	31.03	70.25	0.00	0.0631	10.93	480.8	393.36	0.0643	495.5	8.919	17.84	10.25	1.67
	79.87	31.03	70.25	0.00	0.0633	10.99	483.4	395.51	0.0660	521.6	9.389	18.78	11.02	1.68
	80.89	31.08	70.25	-0.00	0.0630	10.92	480.6	393.21	0.0641	502.6	9.047	18.09	10.46	1.67
	81.87	31.03	70.28	0.00	0.0629	10.91	480.0	392.52	0.0639	500.9	9.016	18.02	10.41	1.67
	82.88	31.05	70.28	0.00	0.0630	10.90	479.7	392.30	0.0643	501.1	9.020	18.03	10.42	1.67
	83.90	31.02	70.28	-0.00	0.0632	10.96	482.1	394.27	0.0653	513.0	9.234	18.46	10.77	1.67
	84.90	31.07	70.25	-0.00	0.0630	10.92	480.4	393.05	0.0647	509.5	9.171	18.34	10.67	1.67
	85.91	31.08	70.28	-0.00	0.0630	10.91	480.2	392.80	0.0646	507.0	9.126	18.25	10.59	1.68
	86.89	31.07	70.28	-0.00	0.0628	10.90	479.7	392.35	0.0647	508.3	9.150	18.29	10.63	1.68
	87.89	31.04	70.28	0.00	0.0628	10.86	477.9	390.88	0.0646	506.3	9.114	18.22	10.57	1.67
	88.89	31.10	70.33	-0.00	0.0630	10.91	480.0	392.34	0.0653	512.4	9.222	18.43	10.75	1.67
	89.90	31.06	70.28	-0.00	0.0631	10.93	480.8	393.22	0.0654	515.2	9.273	18.54	10.83	1.67
	90.87	31.05	70.31	0.00	0.0631	10.95	481.6	393.73	0.0657	518.8	9.339	18.66	10.94	1.67
	91.89	31.07	70.25	0.00	0.0630	10.91	480.2	392.88	0.0655	515.4	9.276	18.55	10.84	1.68
	92.96	31.07	70.26	0.00	0.0629	10.91	479.9	392.69	0.0654	516.5	9.297	18.60	10.87	1.68
	93.90	31.07	70.28	-0.00	0.0629	10.86	478.0	390.95	0.0653	511.5	9.207	18.41	10.73	1.67
	94.90	31.06	70.25	-0.00	0.0631	10.92	480.3	392.99	0.0659	519.8	9.357	18.71	10.97	1.67
	95.88	31.09	70.28	0.00	0.0631	10.94	481.5	393.83	0.0663	524.6	9.443	18.88	11.11	1.68
	96.88	31.09	70.28	0.00	0.0631	10.95	481.7	394.02	0.0665	526.7	9.480	18.95	11.17	1.68
	97.95	31.09	70.28	-0.00	0.0629	10.91	480.0	392.65	0.0659	522.8	9.411	18.82	11.06	1.68
	98.89	31.08	70.28	0.00	0.0630	10.93	480.8	393.23	0.0663	525.7	9.463	18.92	11.14	1.68
	99.89	31.09	70.28	0.00	0.0630	10.92	480.4	392.95	0.0664	526.5	9.477	18.95	11.16	1.67
	100.90	31.12	70.28	-0.00	0.0629	10.91	479.9	392.60	0.0663	526.8	9.483	18.96	11.17	1.68
	101.89	31.14	70.28	-0.00	0.0630	10.90	479.8	392.51	0.0662	525.6	9.461	18.92	11.14	1.68
	102.90	31.11	70.28	-0.00	0.0628	10.87	478.5	391.43	0.0659	520.3	9.366	18.73	10.99	1.68
	103.97	31.09	70.28	-0.00	0.0628	10.87	478.5	391.41	0.0658	521.4	9.386	18.77	11.02	1.68
	104.88	31.12	70.25	0.00	0.0629	10.89	479.2	392.15	0.0662	524.3	9.437	18.88	11.10	1.68
	105.88	31.14	70.28	0.00	0.0628	10.89	479.1	391.95	0.0662	524.5	9.442	18.88	11.11	1.68
	106.89	31.14	70.25	-0.00	0.0628	10.87	478.3	391.48	0.0659	522.6	9.407	18.82	11.05	1.68
	107.89	31.09	70.28	0.00	0.0628	10.87	478.3	391.24	0.0661	522.9	9.412	18.82	11.06	1.68
	108.87	31.09	70.28	0.00	0.0628	10.88	478.6	391.47	0.0661	523.5	9.424	18.84	11.08	1.68
	109.89	31.07	70.25	-0.00	0.0629	10.88	478.8	391.75	0.0661	523.6	9.425	18.85	11.08	1.68
	110.87	31.07	70.25	0.00	0.0628	10.86	478.0	391.10	0.0659	522.0	9.396	18.79	11.03	1.68
	111.88	31.08	70.26	0.00	0.0627	10.85	477.6	390.76	0.0660	521.4	9.386	18.77	11.02	1.68
	112.90	31.06	70.25	-0.00	0.0627	10.83	476.7	390.06	0.0662	523.2	9.418	18.84	11.07	1.68
	113.88	31.09	70.28	0.00	0.0627	10.87	478.1	391.09	0.0665	526.5	9.478	18.95	11.16	1.68
	114.89	31.14	70.31	-0.00	0.0627	10.85	477.2	390.30	0.0673	536.1	9.650	19.29	11.44	1.68
	115.96	31.09	70.28	0.00	0.0627	10.84	476.9	390.12	0.0674	539.5	9.711	19.42	11.53	1.68
	116.88	31.11	70.28	0.00	0.0628	10.85	477.3	390.46	0.0673	537.2	9.669	19.34	11.47	1.68
	117.89	31.11	70.28	-0.00	0.0628	10.86	477.7	390.77	0.0673	538.0	9.684	19.36	11.49	1.68
	118.89	31.14	70.25	0.00	0.0627	10.86	477.6	390.90	0.0669	533.1	9.595	19.20	11.35	1.68
	119.89	31.13	70.26	-0.00	0.0627	10.84	477.1	390.44	0.0669	532.5	9.585	19.17	11.34	1.68
	120.89	31.14	70.28	0.00	0.0627	10.84	477.0	390.26	0.0669	532.8	9.590	19.18	11.34	1.68
