Jul 25 2015 at 13:30:14
Frequency: 1.00Hz.
CO2
Zero:  Value:0.95  Date:18 Mar 2005	 at 07:22:33	
Span:  Value:1.00  Date:18 Mar 2005	 at 07:25:09	
H2O
Zero:  Value:0.71  Date:18 Mar 2005	 at 07:52:31	
Span:  Value:0.99  Date:18 Mar 2005	 at 11:44:01	
	Relative Time	Temperature	Pressure	Aux Input	CO2 Absorptance	CO2 mmol/m3	CO2 mg/m3	CO2 umol/mol	H2O Absorptance	H2O mmol/m3	H2O g/m3	H2O mmol/mol	H2O(°C)	Cooler Voltage
	0.78	30.02	70.30	0.00	0.0634	11.01	484.2	394.56	0.0537	388.7	6.996	13.93	6.62	1.65
	1.81	30.07	70.28	-0.00	0.0635	11.01	484.6	395.07	0.0543	392.8	7.071	14.09	6.78	1.65
	2.79	30.05	70.28	0.00	0.0634	11.01	484.4	394.91	0.0550	399.9	7.199	14.34	7.03	1.65
	3.79	30.05	70.28	0.00	0.0633	10.99	483.7	394.29	0.0550	402.4	7.244	14.43	7.13	1.65
	4.80	30.06	70.28	0.00	0.0634	10.99	483.7	394.27	0.0557	406.4	7.316	14.58	7.27	1.65
	5.80	30.07	70.30	-0.00	0.0632	10.97	482.6	393.33	0.0554	410.6	7.390	14.72	7.42	1.66
	6.80	30.04	70.28	0.00	0.0632	10.98	482.9	393.65	0.0563	424.1	7.634	15.21	7.89	1.65
	7.80	30.06	70.28	0.00	0.0634	10.99	483.5	394.16	0.0586	430.4	7.748	15.44	8.11	1.65
	8.81	30.05	70.28	-0.00	0.0635	11.02	485.0	395.35	0.0583	440.7	7.933	15.81	8.46	1.65
	9.80	30.06	70.30	-0.00	0.0638	11.08	487.4	397.22	0.0606	452.7	8.149	16.23	8.86	1.65
	10.80	30.08	70.28	0.00	0.0642	11.15	490.6	400.00	0.0605	468.8	8.438	16.82	9.37	1.66
	11.79	30.05	70.28	0.00	0.0643	11.22	493.7	402.47	0.0607	466.9	8.404	16.75	9.31	1.65
	12.82	30.11	70.28	-0.00	0.0645	11.24	494.5	403.18	0.0600	457.3	8.231	16.41	9.01	1.65
	13.81	30.10	70.25	0.00	0.0645	11.23	494.3	403.13	0.0604	458.8	8.258	16.46	9.05	1.65
	14.80	30.10	70.28	0.00	0.0647	11.28	496.5	404.81	0.0603	457.7	8.239	16.42	9.02	1.65
	15.80	30.10	70.28	-0.00	0.0647	11.29	496.9	405.09	0.0601	456.1	8.209	16.36	8.97	1.65
	16.82	30.08	70.28	-0.00	0.0642	11.18	491.9	401.06	0.0592	443.7	7.986	15.92	8.56	1.65
	17.80	30.11	70.25	0.00	0.0643	11.21	493.2	402.24	0.0592	449.3	8.088	16.13	8.75	1.65
	18.81	30.08	70.28	-0.00	0.0643	11.16	491.2	400.44	0.0597	440.6	7.931	15.81	8.46	1.65
	19.80	30.10	70.28	-0.00	0.0644	11.21	493.3	402.19	0.0606	455.7	8.202	16.35	8.96	1.65
	20.81	30.10	70.31	-0.00	0.0644	11.23	494.3	402.83	0.0599	458.9	8.259	16.45	9.06	1.65
	21.79	30.14	70.28	-0.00	0.0643	11.23	494.2	402.95	0.0603	461.1	8.299	16.54	9.13	1.65
	22.79	30.14	70.28	0.00	0.0644	11.23	494.3	403.02	0.0609	467.1	8.407	16.76	9.32	1.65
	23.81	30.14	70.28	0.00	0.0643	11.21	493.3	402.26	0.0605	462.3	8.321	16.58	9.17	1.65
	24.82	30.14	70.28	-0.00	0.0642	11.18	492.1	401.31	0.0606	458.1	8.245	16.44	9.03	1.65
	25.82	30.12	70.28	-0.00	0.0643	11.20	492.9	401.86	0.0615	470.0	8.459	16.86	9.41	1.65
	26.80	30.12	70.28	0.00	0.0643	11.19	492.6	401.62	0.0617	472.1	8.498	16.94	9.48	1.65
	27.82	30.17	70.28	-0.00	0.0642	11.18	491.7	400.98	0.0617	466.4	8.396	16.74	9.30	1.65
	28.80	30.14	70.30	0.00	0.0644	11.22	493.5	402.30	0.0633	491.2	8.842	17.62	10.08	1.65
	29.80	30.17	70.33	0.00	0.0644	11.23	494.0	402.54	0.0639	494.4	8.898	17.73	10.17	1.65
	30.80	30.14	70.28	0.00	0.0643	11.21	493.4	402.28	0.0645	507.3	9.132	18.20	10.56	1.65
	31.79	30.13	70.25	0.00	0.0641	11.16	491.2	400.69	0.0628	484.8	8.726	17.40	9.88	1.65
	32.79	30.16	70.31	0.00	0.0642	11.21	493.1	401.97	0.0624	494.4	8.899	17.73	10.17	1.65
	33.81	30.16	70.28	-0.00	0.0642	11.17	491.7	400.97	0.0642	495.6	8.921	17.78	10.21	1.65
	34.82	30.13	70.28	-0.00	0.0643	11.22	493.5	402.37	0.0656	517.5	9.315	18.57	10.85	1.65
	35.80	30.19	70.31	-0.00	0.0644	11.22	493.6	402.42	0.0667	529.2	9.526	18.98	11.19	1.65
	36.88	30.18	70.25	-0.00	0.0643	11.21	493.0	402.23	0.0669	523.0	9.413	18.77	11.02	1.65
	37.78	30.21	70.28	0.00	0.0642	11.20	492.8	401.95	0.0662	527.2	9.489	18.92	11.14	1.65
	38.88	30.18	70.28	-0.00	0.0643	11.20	492.7	401.77	0.0661	523.3	9.420	18.78	11.03	1.65
	39.78	30.20	70.28	0.00	0.0642	11.20	492.8	401.93	0.0666	528.0	9.504	18.95	11.16	1.66
	40.83	30.21	70.28	-0.00	0.0643	11.21	493.4	402.42	0.0666	536.6	9.659	19.26	11.41	1.65
	41.81	30.25	70.28	-0.00	0.0642	11.17	491.5	400.97	0.0663	519.3	9.347	18.64	10.91	1.65
	42.81	30.25	70.25	0.00	0.0642	11.19	492.5	401.93	0.0668	529.4	9.529	19.01	11.20	1.65
	43.79	30.22	70.26	0.00	0.0642	11.18	492.1	401.50	0.0670	530.6	9.552	19.05	11.24	1.65
	44.80	30.24	70.28	0.00	0.0641	11.19	492.5	401.70	0.0667	535.3	9.636	19.21	11.37	1.65
	45.80	30.24	70.28	0.00	0.0642	11.18	491.9	401.23	0.0671	537.1	9.667	19.28	11.42	1.66
	46.80	30.26	70.28	-0.00	0.0643	11.20	493.0	402.12	0.0681	547.8	9.861	19.66	11.72	1.65
	47.81	30.26	70.28	-0.00	0.0643	11.20	492.7	401.88	0.0693	559.2	10.066	20.07	12.03	1.65
	48.80	30.29	70.28	-0.00	0.0642	11.19	492.4	401.74	0.0692	560.8	10.094	20.13	12.08	1.65
	49.81	30.27	70.28	-0.00	0.0642	11.18	492.1	401.43	0.0697	564.4	10.160	20.26	12.17	1.65
	50.79	30.26	70.25	0.00	0.0642	11.19	492.4	401.82	0.0704	571.3	10.283	20.51	12.36	1.65
	51.79	30.21	70.28	0.00	0.0641	11.17	491.5	400.89	0.0702	573.4	10.322	20.58	12.41	1.66
	52.81	30.25	70.28	-0.00	0.0641	11.17	491.5	400.92	0.0699	568.4	10.231	20.40	12.28	1.65
	53.80	30.29	70.23	-0.00	0.0641	11.16	491.1	400.97	0.0698	567.5	10.215	20.39	12.26	1.65
	54.87	30.29	70.28	0.00	0.0641	11.15	490.7	400.34	0.0693	562.5	10.125	20.19	12.12	1.65
	55.79	30.27	70.28	0.00	0.0639	11.13	489.7	399.51	0.0686	553.9	9.970	19.88	11.89	1.66
	56.80	30.26	70.25	-0.00	0.0639	11.12	489.2	399.19	0.0690	557.8	10.041	20.03	11.99	1.66
	57.78	30.28	70.25	0.00	0.0638	11.10	488.3	398.47	0.0685	550.5	9.909	19.77	11.79	1.66
	58.80	30.28	70.28	0.00	0.0638	11.10	488.5	398.56	0.0708	564.2	10.156	20.25	12.17	1.65
	59.81	30.28	70.28	0.00	0.0638	11.09	487.9	398.00	0.0706	577.0	10.386	20.71	12.51	1.65
	60.79	30.30	70.28	0.00	0.0638	11.09	488.0	398.17	0.0697	567.9	10.223	20.39	12.27	1.65
	61.82	30.30	70.28	-0.00	0.0638	11.09	488.0	398.14	0.0699	569.4	10.249	20.44	12.31	1.65
	62.81	30.32	70.28	-0.00	0.0637	11.08	487.4	397.68	0.0705	573.3	10.319	20.58	12.41	1.66
	63.82	30.30	70.28	-0.00	0.0637	11.07	487.3	397.53	0.0707	580.3	10.446	20.83	12.60	1.66
	64.79	30.33	70.28	0.00	0.0637	11.07	487.2	397.53	0.0707	579.0	10.422	20.79	12.56	1.65
	65.82	30.28	70.31	-0.00	0.0637	11.06	486.8	396.96	0.0704	575.0	10.349	20.63	12.46	1.65
	66.78	30.30	70.28	0.00	0.0637	11.06	486.7	397.11	0.0707	578.2	10.408	20.76	12.54	1.65
	67.80	30.30	70.28	0.00	0.0636	11.04	485.8	396.36	0.0698	566.4	10.195	20.33	12.23	1.65
	68.81	30.30	70.28	-0.00	0.0636	11.04	485.7	396.27	0.0702	568.9	10.240	20.42	12.29	1.66
	69.80	30.33	70.28	0.00	0.0635	11.03	485.5	396.10	0.0698	567.6	10.218	20.38	12.26	1.66
	70.79	30.30	70.28	0.00	0.0636	11.03	485.4	396.03	0.0703	569.7	10.254	20.45	12.32	1.65
	71.79	30.32	70.23	0.00	0.0635	11.02	484.9	395.91	0.0708	577.0	10.387	20.73	12.51	1.65
	72.79	30.34	70.28	0.00	0.0634	11.00	484.2	395.07	0.0714	585.1	10.533	21.01	12.73	1.65
	73.79	30.34	70.28	0.00	0.0634	11.01	484.4	395.25	0.0710	581.5	10.468	20.88	12.63	1.65
	74.79	30.32	70.28	0.00	0.0634	11.00	484.1	394.97	0.0708	574.3	10.337	20.62	12.44	1.66
	75.79	30.34	70.26	-0.00	0.0633	10.98	483.2	394.40	0.0711	582.4	10.483	20.92	12.65	1.66
	76.81	30.32	70.28	-0.00	0.0633	10.99	483.4	394.42	0.0719	589.2	10.606	21.15	12.83	1.65
	77.81	30.34	70.31	-0.00	0.0633	10.98	483.2	394.12	0.0719	593.6	10.685	21.30	12.95	1.66
	78.80	30.35	70.26	0.00	0.0633	10.97	482.7	394.04	0.0720	591.8	10.653	21.26	12.90	1.65
	79.81	30.34	70.28	0.00	0.0632	10.96	482.4	393.66	0.0716	585.5	10.540	21.02	12.74	1.66
	80.79	30.36	70.28	0.00	0.0632	10.96	482.5	393.68	0.0710	580.5	10.448	20.84	12.60	1.66
	81.81	30.37	70.26	-0.00	0.0632	10.97	482.6	393.98	0.0718	590.4	10.627	21.21	12.86	1.66
	82.81	30.38	70.26	0.00	0.0631	10.96	482.1	393.55	0.0722	592.7	10.669	21.29	12.92	1.66
	83.87	30.37	70.25	0.00	0.0632	10.95	481.8	393.30	0.0720	595.1	10.711	21.37	12.98	1.66
	84.79	30.38	70.28	0.00	0.0631	10.94	481.2	392.67	0.0718	590.5	10.629	21.20	12.87	1.66
	85.78	30.40	70.25	0.00	0.0631	10.93	481.1	392.74	0.0722	597.2	10.749	21.45	13.04	1.66
	86.80	30.40	70.31	-0.00	0.0631	10.94	481.2	392.53	0.0724	592.4	10.663	21.26	12.92	1.66
	87.78	30.37	70.31	0.00	0.0631	10.93	481.0	392.35	0.0723	599.1	10.784	21.50	13.09	1.66
	88.81	30.40	70.25	0.00	0.0631	10.93	481.1	392.75	0.0726	599.1	10.785	21.52	13.09	1.66
	89.81	30.44	70.28	-0.00	0.0630	10.92	480.6	392.25	0.0728	605.1	10.892	21.73	13.24	1.66
	90.82	30.39	70.25	-0.00	0.0630	10.92	480.5	392.30	0.0730	604.4	10.880	21.71	13.23	1.66
	91.81	30.37	70.25	-0.00	0.0630	10.90	479.7	391.64	0.0733	607.2	10.929	21.81	13.29	1.66
	92.81	30.42	70.30	0.00	0.0629	10.90	479.7	391.36	0.0733	607.0	10.926	21.79	13.29	1.66
	93.79	30.42	70.28	0.00	0.0629	10.89	479.2	391.08	0.0741	621.4	11.185	22.31	13.65	1.66
	94.80	30.42	70.28	0.00	0.0629	10.89	479.2	391.10	0.0742	620.2	11.163	22.27	13.62	1.66
	95.78	30.42	70.30	0.00	0.0629	10.89	479.3	391.06	0.0745	622.3	11.201	22.34	13.67	1.66
	96.80	30.43	70.30	0.00	0.0629	10.89	479.0	390.85	0.0743	619.2	11.146	22.23	13.60	1.66
	97.80	30.44	70.28	-0.00	0.0629	10.89	479.2	391.16	0.0743	621.6	11.189	22.33	13.66	1.66
	98.80	30.44	70.30	0.00	0.0629	10.89	479.2	391.00	0.0743	621.4	11.185	22.31	13.65	1.66
	99.79	30.44	70.28	-0.00	0.0629	10.88	478.6	390.67	0.0745	627.7	11.299	22.54	13.81	1.66
	100.81	30.44	70.30	-0.00	0.0629	10.88	478.9	390.75	0.0743	620.7	11.172	22.28	13.63	1.66
	101.81	30.48	70.25	-0.00	0.0628	10.88	478.7	390.90	0.0746	624.9	11.249	22.45	13.74	1.66
	102.79	30.42	70.28	0.00	0.0629	10.88	478.9	390.84	0.0741	620.3	11.165	22.27	13.62	1.66
	103.82	30.46	70.28	-0.00	0.0628	10.87	478.3	390.44	0.0739	618.8	11.139	22.23	13.59	1.66
	104.88	30.48	70.33	-0.00	0.0628	10.87	478.5	390.33	0.0737	614.9	11.067	22.07	13.49	1.66
	105.80	30.48	70.28	0.00	0.0628	10.86	477.9	390.09	0.0743	621.2	11.182	22.31	13.65	1.66
	106.80	30.50	70.25	0.00	0.0628	10.87	478.1	390.48	0.0741	621.6	11.189	22.34	13.66	1.66
	107.81	30.48	70.26	0.00	0.0628	10.87	478.5	390.73	0.0742	614.4	11.059	22.08	13.48	1.66
	108.80	30.48	70.25	0.00	0.0628	10.86	478.0	390.37	0.0748	627.6	11.296	22.55	13.81	1.66
	109.81	30.47	70.26	-0.00	0.0627	10.84	476.9	389.46	0.0750	631.5	11.367	22.69	13.90	1.66
	110.79	30.52	70.28	0.00	0.0627	10.85	477.6	389.89	0.0746	629.2	11.326	22.60	13.85	1.66
	111.79	30.50	70.26	0.00	0.0627	10.84	477.1	389.64	0.0757	640.7	11.533	23.02	14.13	1.66
	112.81	30.54	70.28	0.00	0.0627	10.85	477.2	389.66	0.0747	628.8	11.318	22.59	13.84	1.66
	113.80	30.50	70.28	-0.00	0.0627	10.84	476.8	389.29	0.0748	631.6	11.369	22.69	13.91	1.66
	114.80	30.50	70.28	0.00	0.0627	10.85	477.4	389.73	0.0743	620.7	11.172	22.30	13.64	1.66
	115.78	30.50	70.28	0.00	0.0627	10.85	477.2	389.57	0.0742	621.8	11.192	22.33	13.66	1.66
	116.86	30.52	70.28	0.00	0.0626	10.83	476.7	389.17	0.0744	624.5	11.241	22.43	13.73	1.66
	117.78	30.50	70.28	0.00	0.0626	10.83	476.5	388.97	0.0749	626.8	11.282	22.51	13.79	1.66
	118.81	30.52	70.28	-0.00	0.0626	10.83	476.7	389.16	0.0751	629.2	11.326	22.60	13.85	1.66
