Jul 25 2015 at 10:39:31
Frequency: 1.00Hz.
CO2
Zero:  Value:0.95  Date:18 Mar 2005	 at 07:22:33	
Span:  Value:1.00  Date:18 Mar 2005	 at 07:25:09	
H2O
Zero:  Value:0.71  Date:18 Mar 2005	 at 07:52:31	
Span:  Value:0.99  Date:18 Mar 2005	 at 11:44:01	
	Relative Time	Temperature	Pressure	Aux Input	CO2 Absorptance	CO2 mmol/m3	CO2 mg/m3	CO2 umol/mol	H2O Absorptance	H2O mmol/m3	H2O g/m3	H2O mmol/mol	H2O(°C)	Cooler Voltage
	0.64	20.75	67.81	0.00	0.0608	10.56	464.8	380.72	0.0569	424.5	7.641	15.30	7.45	1.53
	1.64	20.77	67.81	-0.00	0.0606	10.51	462.5	378.78	0.0587	445.7	8.023	16.06	8.17	1.53
	2.64	20.74	67.81	0.00	0.0606	10.49	461.4	377.90	0.0593	453.3	8.159	16.33	8.41	1.53
	3.65	20.72	67.83	-0.00	0.0606	10.51	462.5	378.63	0.0592	454.9	8.189	16.39	8.47	1.53
	4.71	20.72	67.78	-0.00	0.0609	10.57	465.0	380.95	0.0591	453.6	8.165	16.35	8.42	1.53
	5.66	20.74	67.81	-0.00	0.0608	10.52	462.9	379.10	0.0590	453.2	8.157	16.33	8.41	1.53
	6.63	20.69	67.81	0.00	0.0609	10.55	464.2	380.11	0.0591	452.0	8.137	16.29	8.37	1.53
	7.66	20.70	67.83	-0.00	0.0609	10.54	463.6	379.52	0.0592	455.2	8.193	16.39	8.47	1.53
	8.64	20.69	67.83	-0.00	0.0606	10.50	461.9	378.13	0.0592	451.3	8.123	16.25	8.35	1.53
	9.62	20.69	67.78	0.00	0.0605	10.48	461.1	377.72	0.0586	449.5	8.091	16.20	8.29	1.53
	10.64	20.70	67.81	0.00	0.0605	10.45	459.9	376.61	0.0587	447.2	8.049	16.11	8.21	1.53
	11.62	20.74	67.83	0.00	0.0605	10.47	460.5	377.01	0.0588	450.8	8.115	16.24	8.33	1.53
	12.64	20.70	67.81	0.00	0.0605	10.47	460.5	377.12	0.0582	443.0	7.973	15.96	8.07	1.53
	13.65	20.67	67.83	-0.00	0.0605	10.46	460.3	376.78	0.0582	442.3	7.961	15.93	8.05	1.53
	14.66	20.65	67.81	-0.00	0.0606	10.48	461.1	377.55	0.0580	440.0	7.919	15.85	7.97	1.53
	15.71	20.69	67.81	0.00	0.0606	10.49	461.7	378.09	0.0584	444.3	7.998	16.01	8.12	1.53
	16.66	20.69	67.81	-0.00	0.0605	10.48	461.1	377.54	0.0584	445.3	8.015	16.04	8.15	1.53
	17.64	20.70	67.80	-0.00	0.0606	10.49	461.4	377.82	0.0585	445.8	8.024	16.06	8.17	1.53
	18.66	20.70	67.81	-0.00	0.0607	10.51	462.2	378.53	0.0588	447.8	8.061	16.14	8.23	1.53
	19.72	20.69	67.83	-0.00	0.0608	10.53	463.3	379.26	0.0586	448.7	8.076	16.16	8.26	1.53
	20.64	20.69	67.81	0.00	0.0610	10.57	465.0	380.76	0.0584	444.6	8.003	16.02	8.13	1.53
	21.64	20.67	67.81	0.00	0.0609	10.55	464.2	380.05	0.0586	446.3	8.034	16.08	8.18	1.53
	22.62	20.65	67.81	0.00	0.0608	10.53	463.2	379.23	0.0584	445.1	8.012	16.04	8.14	1.53
	23.65	20.65	67.81	-0.00	0.0607	10.52	463.0	379.08	0.0577	438.4	7.892	15.79	7.92	1.53
	24.65	20.62	67.81	-0.00	0.0606	10.48	461.3	377.65	0.0575	435.3	7.835	15.68	7.81	1.53
	25.65	20.64	67.78	0.00	0.0606	10.47	460.7	377.26	0.0573	433.6	7.806	15.63	7.76	1.53
	26.63	20.64	67.83	-0.00	0.0606	10.49	461.7	377.80	0.0572	433.6	7.805	15.61	7.76	1.53
	27.64	20.65	67.88	-0.00	0.0607	10.50	462.0	377.88	0.0565	426.2	7.672	15.34	7.51	1.53
	28.64	20.65	67.80	0.00	0.0607	10.52	463.0	379.09	0.0560	418.9	7.540	15.09	7.25	1.53
	29.66	20.70	67.83	-0.00	0.0607	10.50	462.1	378.21	0.0562	420.8	7.575	15.16	7.32	1.53
	30.65	20.70	67.81	-0.00	0.0607	10.52	462.7	378.94	0.0561	420.1	7.562	15.14	7.30	1.53
	31.65	20.74	67.83	-0.00	0.0607	10.51	462.3	378.45	0.0562	422.2	7.600	15.21	7.37	1.53
	32.63	20.75	67.81	0.00	0.0607	10.51	462.7	378.92	0.0562	421.9	7.594	15.20	7.36	1.53
	33.65	20.77	67.83	0.00	0.0609	10.55	464.1	379.99	0.0562	421.1	7.580	15.17	7.33	1.53
	34.63	20.81	67.81	0.00	0.0609	10.56	464.7	380.67	0.0567	425.1	7.652	15.32	7.47	1.53
	35.72	20.79	67.81	-0.00	0.0609	10.55	464.3	380.32	0.0566	427.0	7.685	15.39	7.54	1.53
	36.65	20.81	67.81	-0.00	0.0608	10.55	464.1	380.18	0.0561	420.9	7.577	15.17	7.33	1.54
	37.64	20.82	67.81	-0.00	0.0608	10.53	463.5	379.72	0.0559	418.9	7.539	15.10	7.26	1.53
	38.64	20.82	67.81	0.00	0.0608	10.54	463.6	379.75	0.0558	418.3	7.530	15.08	7.24	1.53
	39.64	20.79	67.81	0.00	0.0609	10.55	464.1	380.14	0.0559	418.6	7.535	15.09	7.25	1.53
	40.65	20.82	67.83	-0.00	0.0609	10.56	464.5	380.39	0.0559	418.8	7.538	15.09	7.26	1.53
	41.65	20.81	67.81	-0.00	0.0610	10.57	465.2	381.04	0.0558	417.5	7.515	15.05	7.21	1.54
	42.65	20.79	67.81	-0.00	0.0609	10.56	464.8	380.70	0.0558	417.7	7.519	15.05	7.22	1.54
	43.65	20.79	67.83	-0.00	0.0609	10.57	464.9	380.69	0.0558	417.8	7.520	15.05	7.22	1.54
	44.65	20.75	67.81	0.00	0.0610	10.58	465.6	381.30	0.0558	417.3	7.512	15.04	7.20	1.54
	45.63	20.74	67.83	0.00	0.0611	10.60	466.5	381.90	0.0557	416.0	7.487	14.98	7.15	1.54
	46.66	20.74	67.81	-0.00	0.0611	10.60	466.3	381.90	0.0556	415.3	7.476	14.97	7.13	1.54
	47.70	20.70	67.81	0.00	0.0611	10.59	466.1	381.67	0.0556	414.7	7.464	14.94	7.11	1.54
	48.66	20.69	67.83	-0.00	0.0610	10.60	466.2	381.60	0.0555	414.5	7.460	14.93	7.10	1.54
	49.64	20.69	67.81	0.00	0.0610	10.59	466.1	381.67	0.0555	413.9	7.450	14.91	7.08	1.54
	50.62	20.65	67.81	0.00	0.0611	10.60	466.4	381.83	0.0555	414.1	7.455	14.92	7.08	1.54
	51.65	20.65	67.83	-0.00	0.0610	10.59	465.8	381.24	0.0554	413.2	7.438	14.88	7.05	1.54
	52.62	20.65	67.81	0.00	0.0610	10.58	465.5	381.10	0.0554	413.1	7.436	14.88	7.05	1.54
	53.65	20.64	67.81	-0.00	0.0610	10.58	465.6	381.18	0.0554	413.6	7.444	14.90	7.06	1.54
	54.63	20.64	67.86	-0.00	0.0610	10.58	465.6	380.87	0.0555	414.3	7.457	14.91	7.09	1.54
	55.65	20.64	67.81	-0.00	0.0610	10.57	465.1	380.80	0.0556	415.2	7.474	14.96	7.12	1.54
	56.64	20.64	67.81	0.00	0.0610	10.57	465.2	380.84	0.0556	414.8	7.466	14.94	7.11	1.54
	57.64	20.62	67.81	0.00	0.0610	10.57	465.3	380.92	0.0556	415.1	7.472	14.95	7.12	1.54
	58.64	20.57	67.83	0.00	0.0610	10.57	465.2	380.65	0.0555	413.5	7.443	14.89	7.06	1.54
	59.62	20.57	67.81	0.00	0.0609	10.57	464.9	380.56	0.0555	413.7	7.446	14.90	7.06	1.54
	60.65	20.57	67.83	-0.00	0.0610	10.58	465.7	381.04	0.0556	415.9	7.486	14.97	7.14	1.54
	61.64	20.57	67.81	-0.00	0.0610	10.59	465.9	381.32	0.0556	415.7	7.483	14.97	7.14	1.54
	62.63	20.59	67.81	0.00	0.0610	10.58	465.6	381.12	0.0555	414.3	7.457	14.92	7.09	1.54
	63.71	20.57	67.83	0.00	0.0610	10.58	465.4	380.80	0.0556	414.5	7.461	14.92	7.09	1.54
	64.65	20.57	67.81	-0.00	0.0610	10.57	465.2	380.75	0.0556	414.9	7.468	14.94	7.11	1.54
	65.63	20.54	67.81	0.00	0.0610	10.58	465.5	380.95	0.0556	415.4	7.478	14.96	7.12	1.54
	66.72	20.55	67.81	0.00	0.0610	10.57	465.2	380.72	0.0555	414.8	7.467	14.94	7.10	1.54
	67.66	20.54	67.81	-0.00	0.0609	10.56	464.8	380.42	0.0555	414.2	7.455	14.91	7.08	1.54
	68.64	20.53	67.81	0.00	0.0609	10.57	464.9	380.51	0.0555	414.0	7.453	14.91	7.08	1.54
	69.65	20.52	67.81	-0.00	0.0610	10.57	465.2	380.65	0.0556	414.4	7.459	14.92	7.09	1.54
	70.65	20.50	67.81	0.00	0.0610	10.58	465.5	380.95	0.0556	415.0	7.470	14.94	7.11	1.54
	71.64	20.55	67.83	0.00	0.0610	10.58	465.5	380.85	0.0556	415.1	7.472	14.95	7.11	1.54
	72.65	20.54	67.81	-0.00	0.0609	10.57	464.9	380.52	0.0555	414.1	7.453	14.91	7.08	1.54
	73.63	20.55	67.81	0.00	0.0609	10.56	464.5	380.17	0.0556	414.4	7.459	14.92	7.09	1.54
	74.72	20.57	67.83	-0.00	0.0610	10.57	465.1	380.57	0.0559	417.5	7.514	15.03	7.20	1.54
	75.64	20.57	67.83	-0.00	0.0610	10.58	465.3	380.72	0.0558	417.3	7.512	15.02	7.19	1.54
	76.64	20.57	67.81	0.00	0.0609	10.56	464.7	380.36	0.0556	415.3	7.476	14.96	7.12	1.54
	77.63	20.59	67.81	0.00	0.0609	10.55	464.3	380.07	0.0556	414.7	7.464	14.93	7.10	1.54
	78.62	20.60	67.81	0.00	0.0609	10.55	464.3	380.04	0.0556	415.0	7.469	14.95	7.11	1.54
	79.70	20.62	67.81	0.00	0.0608	10.54	463.9	379.73	0.0556	414.8	7.467	14.94	7.11	1.54
	80.64	20.60	67.81	-0.00	0.0607	10.53	463.5	379.39	0.0555	413.9	7.451	14.91	7.08	1.54
	81.64	20.60	67.83	0.00	0.0608	10.53	463.5	379.29	0.0556	414.3	7.458	14.92	7.09	1.54
	82.63	20.62	67.83	0.00	0.0608	10.54	463.6	379.33	0.0557	415.5	7.479	14.96	7.13	1.54
	83.63	20.62	67.81	0.00	0.0608	10.54	463.6	379.49	0.0557	415.9	7.486	14.98	7.14	1.55
	84.65	20.62	67.81	-0.00	0.0607	10.53	463.1	379.14	0.0556	415.7	7.482	14.97	7.14	1.55
	85.64	20.66	67.81	-0.00	0.0607	10.53	463.2	379.24	0.0557	416.3	7.494	15.00	7.16	1.54
	86.63	20.62	67.81	0.00	0.0608	10.54	463.9	379.76	0.0560	419.2	7.545	15.10	7.26	1.55
	87.64	20.64	67.81	-0.00	0.0608	10.55	464.1	379.92	0.0562	421.0	7.579	15.17	7.33	1.55
	88.64	20.64	67.81	0.00	0.0608	10.55	464.2	380.06	0.0562	421.4	7.586	15.18	7.34	1.55
	89.64	20.64	67.81	0.00	0.0608	10.53	463.3	379.31	0.0560	420.1	7.562	15.13	7.29	1.55
	90.65	20.64	67.81	-0.00	0.0608	10.53	463.4	379.42	0.0561	420.5	7.570	15.15	7.31	1.55
	91.64	20.62	67.81	0.00	0.0608	10.54	463.9	379.75	0.0562	421.2	7.581	15.17	7.33	1.55
	92.63	20.62	67.81	0.00	0.0608	10.54	463.9	379.78	0.0561	420.9	7.575	15.16	7.32	1.55
	93.65	20.62	67.83	-0.00	0.0608	10.53	463.5	379.33	0.0561	420.6	7.570	15.14	7.31	1.55
	94.65	20.62	67.83	-0.00	0.0608	10.53	463.1	378.99	0.0562	421.0	7.578	15.16	7.32	1.55
	95.64	20.62	67.83	0.00	0.0607	10.52	462.8	378.68	0.0562	421.2	7.581	15.16	7.33	1.55
	96.64	20.62	67.85	-0.00	0.0607	10.51	462.2	378.14	0.0561	421.0	7.577	15.15	7.32	1.55
	97.64	20.64	67.83	0.00	0.0607	10.51	462.5	378.46	0.0563	421.4	7.585	15.17	7.34	1.55
	98.62	20.62	67.83	0.00	0.0608	10.53	463.3	379.13	0.0565	424.1	7.633	15.27	7.43	1.55
	99.65	20.64	67.85	-0.00	0.0607	10.52	463.1	378.84	0.0564	424.1	7.633	15.26	7.43	1.55
	100.65	20.62	67.81	-0.00	0.0608	10.54	463.6	379.55	0.0566	426.3	7.673	15.35	7.51	1.55
	101.65	20.65	67.83	-0.00	0.0607	10.52	463.0	378.93	0.0565	425.1	7.651	15.31	7.46	1.55
	102.65	20.65	67.81	0.00	0.0608	10.54	463.7	379.63	0.0567	426.7	7.680	15.37	7.52	1.55
	103.63	20.67	67.78	0.00	0.0608	10.54	463.6	379.71	0.0568	426.8	7.683	15.38	7.53	1.55
	104.65	20.65	67.81	0.00	0.0608	10.54	463.7	379.62	0.0567	427.3	7.692	15.39	7.54	1.55
	105.64	20.69	67.81	-0.00	0.0608	10.52	463.0	379.11	0.0566	426.0	7.668	15.35	7.50	1.55
	106.72	20.67	67.81	-0.00	0.0608	10.53	463.4	379.39	0.0567	427.5	7.695	15.40	7.55	1.55
	107.64	20.67	67.83	-0.00	0.0608	10.53	463.3	379.21	0.0567	427.1	7.687	15.38	7.53	1.55
	108.66	20.65	67.83	-0.00	0.0607	10.52	463.0	378.96	0.0568	427.4	7.694	15.39	7.55	1.55
	109.64	20.64	67.83	-0.00	0.0607	10.52	463.0	378.88	0.0568	427.8	7.701	15.40	7.56	1.55
	110.62	20.64	67.81	0.00	0.0607	10.51	462.4	378.52	0.0567	426.8	7.682	15.37	7.52	1.55
	111.65	20.64	67.83	0.00	0.0606	10.51	462.3	378.33	0.0567	427.0	7.685	15.37	7.53	1.55
	112.65	20.64	67.81	-0.00	0.0606	10.50	462.0	378.25	0.0568	427.8	7.700	15.41	7.56	1.55
	113.72	20.64	67.81	-0.00	0.0607	10.51	462.4	378.51	0.0569	429.1	7.723	15.46	7.60	1.55
	114.64	20.65	67.81	-0.00	0.0607	10.51	462.3	378.50	0.0568	428.3	7.709	15.43	7.58	1.55
	115.66	20.65	67.81	-0.00	0.0607	10.50	461.9	378.14	0.0567	425.4	7.658	15.33	7.48	1.55
