Jul 25 2015 at 9:30:15
Frequency: 1.00Hz.
CO2
Zero:  Value:0.95  Date:18 Mar 2005	 at 07:22:33	
Span:  Value:1.00  Date:18 Mar 2005	 at 07:25:09	
H2O
Zero:  Value:0.71  Date:18 Mar 2005	 at 07:52:31	
Span:  Value:0.99  Date:18 Mar 2005	 at 11:44:01	
	Relative Time	Temperature	Pressure	Aux Input	CO2 Absorptance	CO2 mmol/m3	CO2 mg/m3	CO2 umol/mol	H2O Absorptance	H2O mmol/m3	H2O g/m3	H2O mmol/mol	H2O(°C)	Cooler Voltage
	0.41	15.86	67.81	0.00	0.0620	10.79	474.7	382.32	0.0603	466.1	8.390	16.52	8.58	1.53
	1.40	15.86	67.81	0.00	0.0620	10.79	474.6	382.25	0.0605	466.9	8.404	16.54	8.60	1.53
	2.40	15.86	67.81	-0.00	0.0620	10.81	475.5	382.99	0.0602	465.6	8.381	16.50	8.56	1.53
	3.40	15.86	67.81	-0.00	0.0621	10.82	476.2	383.54	0.0604	466.9	8.404	16.54	8.60	1.53
	4.40	15.86	67.81	-0.00	0.0624	10.88	478.7	385.56	0.0603	465.6	8.382	16.50	8.56	1.53
	5.41	15.87	67.78	-0.00	0.0624	10.89	479.3	386.18	0.0601	465.1	8.372	16.49	8.55	1.53
	6.40	15.86	67.81	-0.00	0.0625	10.91	479.9	386.50	0.0603	465.6	8.380	16.50	8.56	1.53
	7.43	15.87	67.81	-0.00	0.0628	10.99	483.4	389.30	0.0600	461.6	8.308	16.36	8.43	1.53
	8.41	15.86	67.81	0.00	0.0627	10.96	482.2	388.30	0.0599	459.9	8.278	16.30	8.38	1.53
	9.41	15.87	67.83	-0.00	0.0628	10.98	483.1	388.98	0.0597	460.4	8.286	16.31	8.40	1.53
	10.42	15.84	67.81	0.00	0.0627	10.97	482.8	388.78	0.0595	457.1	8.228	16.20	8.29	1.53
	11.40	15.87	67.81	-0.00	0.0628	10.98	483.2	389.15	0.0594	455.6	8.201	16.15	8.24	1.53
	12.39	15.87	67.78	0.00	0.0627	10.96	482.4	388.71	0.0594	455.5	8.200	16.15	8.24	1.53
	13.40	15.87	67.81	-0.00	0.0627	10.96	482.3	388.43	0.0593	455.6	8.200	16.14	8.24	1.53
	14.40	15.87	67.81	0.00	0.0626	10.95	481.7	387.95	0.0591	453.2	8.157	16.06	8.16	1.53
	15.49	15.87	67.81	-0.00	0.0626	10.94	481.4	387.73	0.0592	453.5	8.163	16.07	8.17	1.53
	16.41	15.87	67.81	0.00	0.0626	10.93	480.9	387.35	0.0592	454.2	8.176	16.10	8.20	1.53
	17.41	15.87	67.81	0.00	0.0625	10.93	480.9	387.30	0.0593	454.7	8.184	16.11	8.21	1.53
	18.41	15.87	67.81	-0.00	0.0624	10.90	479.6	386.22	0.0592	454.2	8.175	16.09	8.20	1.53
	19.41	15.87	67.79	0.00	0.0624	10.90	479.5	386.34	0.0593	454.2	8.175	16.10	8.20	1.54
	20.41	15.87	67.81	-0.00	0.0624	10.89	479.4	386.08	0.0594	455.4	8.197	16.14	8.24	1.53
	21.42	15.87	67.81	-0.00	0.0624	10.89	479.3	386.03	0.0594	455.7	8.202	16.15	8.25	1.53
	22.40	15.87	67.81	0.00	0.0623	10.88	478.8	385.68	0.0594	456.3	8.214	16.17	8.27	1.54
	23.40	15.87	67.81	0.00	0.0624	10.88	478.5	385.42	0.0593	456.1	8.209	16.16	8.26	1.54
	24.40	15.87	67.81	0.00	0.0623	10.88	478.6	385.46	0.0593	454.4	8.179	16.10	8.20	1.53
	25.41	15.87	67.83	-0.00	0.0623	10.88	478.9	385.55	0.0593	454.6	8.183	16.11	8.21	1.54
	26.40	15.87	67.78	0.00	0.0624	10.89	479.2	386.12	0.0593	455.0	8.190	16.13	8.22	1.54
	27.41	15.89	67.81	-0.00	0.0624	10.89	479.4	386.11	0.0593	454.4	8.179	16.10	8.21	1.54
	28.39	15.87	67.81	0.00	0.0624	10.90	479.7	386.39	0.0593	454.7	8.184	16.11	8.21	1.54
	29.39	15.87	67.81	-0.00	0.0624	10.89	479.2	386.00	0.0592	453.3	8.159	16.06	8.17	1.54
	30.39	15.89	67.81	0.00	0.0624	10.89	479.1	385.86	0.0591	453.0	8.153	16.05	8.16	1.54
	31.40	15.87	67.81	0.00	0.0624	10.89	479.2	385.96	0.0592	453.5	8.163	16.07	8.17	1.54
	32.42	15.91	67.81	-0.00	0.0624	10.89	479.3	386.05	0.0592	454.1	8.173	16.09	8.19	1.54
	33.42	15.89	67.81	-0.00	0.0623	10.87	478.4	385.35	0.0591	453.2	8.157	16.06	8.16	1.54
	34.41	15.89	67.81	-0.00	0.0623	10.87	478.2	385.21	0.0591	452.9	8.152	16.05	8.16	1.54
	35.40	15.89	67.81	0.00	0.0622	10.86	477.9	384.91	0.0591	452.9	8.153	16.05	8.16	1.54
	36.41	15.89	67.81	0.00	0.0623	10.86	477.9	384.94	0.0591	453.1	8.155	16.06	8.16	1.54
	37.39	15.91	67.81	0.00	0.0622	10.86	477.8	384.89	0.0592	454.3	8.177	16.10	8.20	1.54
	38.41	15.91	67.78	-0.00	0.0622	10.86	477.9	385.08	0.0593	455.0	8.189	16.13	8.22	1.54
	39.47	15.91	67.81	-0.00	0.0622	10.85	477.5	384.60	0.0593	454.6	8.182	16.11	8.21	1.54
	40.42	15.91	67.78	-0.00	0.0622	10.85	477.4	384.67	0.0592	454.3	8.178	16.11	8.20	1.54
	41.39	15.92	67.81	0.00	0.0622	10.84	477.0	384.27	0.0592	454.0	8.172	16.09	8.19	1.54
	42.42	15.91	67.81	-0.00	0.0622	10.85	477.2	384.37	0.0592	454.1	8.174	16.09	8.20	1.54
	43.40	15.91	67.78	0.00	0.0621	10.84	477.0	384.33	0.0592	454.4	8.179	16.11	8.21	1.54
	44.38	15.91	67.81	-0.00	0.0621	10.84	477.0	384.20	0.0593	454.5	8.182	16.11	8.21	1.54
	45.41	15.92	67.81	-0.00	0.0621	10.83	476.7	383.96	0.0593	454.7	8.184	16.11	8.21	1.54
	46.41	15.92	67.81	-0.00	0.0621	10.83	476.6	383.92	0.0593	454.2	8.175	16.10	8.20	1.54
	47.42	15.92	67.81	-0.00	0.0621	10.83	476.5	383.83	0.0593	454.6	8.183	16.11	8.21	1.54
	48.41	15.92	67.81	-0.00	0.0621	10.82	476.3	383.64	0.0593	455.2	8.193	16.13	8.23	1.54
	49.41	15.94	67.81	0.00	0.0620	10.82	476.0	383.43	0.0594	455.1	8.191	16.13	8.23	1.54
	50.47	15.92	67.81	0.00	0.0620	10.81	475.6	383.14	0.0594	455.4	8.197	16.14	8.24	1.54
	51.40	15.94	67.83	0.00	0.0621	10.82	476.0	383.32	0.0595	456.6	8.219	16.18	8.28	1.54
	52.40	15.94	67.81	-0.00	0.0621	10.82	476.2	383.61	0.0595	456.3	8.214	16.18	8.27	1.54
	53.38	15.91	67.81	0.00	0.0621	10.82	476.3	383.65	0.0595	456.4	8.216	16.18	8.27	1.54
	54.40	15.94	67.81	0.00	0.0620	10.82	475.9	383.37	0.0593	456.4	8.215	16.18	8.27	1.54
	55.38	15.94	67.81	0.00	0.0620	10.81	475.7	383.21	0.0594	456.3	8.214	16.18	8.27	1.54
	56.40	15.94	67.81	0.00	0.0620	10.81	475.4	383.00	0.0595	456.7	8.220	16.19	8.28	1.54
	57.41	15.94	67.81	-0.00	0.0620	10.81	475.6	383.11	0.0595	457.1	8.229	16.20	8.30	1.54
	58.42	15.96	67.81	0.00	0.0620	10.80	475.1	382.77	0.0595	456.6	8.218	16.18	8.28	1.54
	59.41	15.96	67.83	0.00	0.0620	10.80	475.3	382.75	0.0595	456.7	8.221	16.18	8.28	1.54
	60.42	15.96	67.81	-0.00	0.0620	10.81	475.5	383.05	0.0595	457.4	8.234	16.21	8.31	1.55
	61.40	15.94	67.81	0.00	0.0620	10.80	475.4	382.97	0.0595	457.1	8.228	16.20	8.30	1.54
	62.38	15.96	67.81	0.00	0.0620	10.80	475.2	382.85	0.0595	456.9	8.225	16.20	8.29	1.54
	63.41	15.96	67.81	-0.00	0.0620	10.80	475.2	382.86	0.0595	457.0	8.226	16.20	8.29	1.54
	64.40	15.97	67.81	-0.00	0.0620	10.80	475.4	383.02	0.0595	457.0	8.226	16.20	8.29	1.54
	65.40	15.94	67.81	0.00	0.0620	10.81	475.5	383.07	0.0596	457.6	8.237	16.22	8.31	1.55
	66.46	15.97	67.81	0.00	0.0620	10.80	475.4	383.01	0.0595	457.9	8.243	16.23	8.32	1.55
	67.41	15.97	67.78	0.00	0.0620	10.80	475.3	383.11	0.0596	457.8	8.241	16.24	8.32	1.55
	68.39	15.99	67.81	0.00	0.0620	10.81	475.6	383.19	0.0597	459.1	8.263	16.28	8.36	1.55
	69.41	15.97	67.81	0.00	0.0621	10.81	475.8	383.35	0.0597	459.2	8.266	16.28	8.37	1.54
	70.42	15.97	67.81	-0.00	0.0620	10.81	475.4	383.05	0.0597	458.9	8.259	16.27	8.35	1.55
	71.48	15.99	67.81	0.00	0.0620	10.81	475.4	383.07	0.0596	458.8	8.259	16.27	8.35	1.55
	72.42	15.99	67.81	-0.00	0.0620	10.81	475.5	383.12	0.0596	459.4	8.269	16.29	8.37	1.55
	73.40	15.99	67.81	0.00	0.0620	10.80	475.1	382.77	0.0597	459.1	8.264	16.28	8.36	1.55
	74.41	15.99	67.81	-0.00	0.0619	10.79	474.8	382.56	0.0596	458.8	8.258	16.26	8.35	1.55
	75.41	15.99	67.81	0.00	0.0619	10.79	474.6	382.39	0.0597	458.1	8.246	16.24	8.33	1.55
	76.41	15.99	67.81	-0.00	0.0619	10.77	474.1	382.00	0.0596	457.4	8.233	16.22	8.31	1.55
	77.41	15.99	67.78	0.00	0.0619	10.77	473.9	382.01	0.0595	457.5	8.236	16.23	8.31	1.55
	78.41	15.99	67.81	-0.00	0.0619	10.78	474.2	382.09	0.0596	458.1	8.247	16.24	8.33	1.55
	79.39	16.00	67.81	-0.00	0.0619	10.78	474.2	382.08	0.0597	458.4	8.251	16.25	8.34	1.55
	80.40	16.00	67.81	-0.00	0.0619	10.77	474.0	381.97	0.0596	458.4	8.251	16.25	8.34	1.55
	81.40	16.04	67.78	-0.00	0.0619	10.78	474.3	382.35	0.0596	458.4	8.251	16.26	8.34	1.55
	82.40	16.02	67.81	-0.00	0.0619	10.77	473.9	381.88	0.0597	458.3	8.249	16.25	8.34	1.55
	83.38	16.00	67.81	0.00	0.0619	10.77	473.9	381.87	0.0596	458.6	8.255	16.26	8.35	1.55
	84.41	16.00	67.78	0.00	0.0618	10.77	474.0	382.10	0.0597	458.9	8.261	16.28	8.36	1.55
	85.39	16.04	67.81	0.00	0.0618	10.77	474.0	381.96	0.0597	458.9	8.260	16.27	8.36	1.55
	86.41	16.02	67.81	0.00	0.0619	10.77	473.8	381.77	0.0597	458.8	8.259	16.27	8.35	1.55
	87.39	16.00	67.81	0.00	0.0619	10.76	473.7	381.67	0.0597	458.6	8.256	16.26	8.35	1.55
	88.41	16.04	67.81	0.00	0.0618	10.76	473.6	381.67	0.0597	458.9	8.260	16.27	8.36	1.55
	89.40	16.02	67.81	0.00	0.0618	10.76	473.5	381.56	0.0597	458.6	8.254	16.26	8.35	1.55
	90.40	16.02	67.81	0.00	0.0618	10.76	473.4	381.45	0.0596	458.4	8.251	16.25	8.34	1.55
	91.40	16.04	67.81	-0.00	0.0618	10.75	473.0	381.17	0.0596	458.1	8.245	16.24	8.33	1.55
	92.40	16.02	67.81	0.00	0.0618	10.75	473.0	381.13	0.0596	458.1	8.246	16.24	8.33	1.55
	93.40	16.02	67.78	0.00	0.0618	10.75	473.1	381.37	0.0596	458.3	8.250	16.26	8.34	1.55
	94.41	16.05	67.81	-0.00	0.0617	10.74	472.7	380.93	0.0596	458.1	8.246	16.24	8.33	1.55
	95.39	16.04	67.81	0.00	0.0617	10.74	472.7	380.92	0.0596	457.9	8.243	16.24	8.33	1.55
	96.41	16.04	67.81	-0.00	0.0617	10.75	472.8	381.00	0.0597	458.8	8.258	16.27	8.35	1.55
	97.39	16.05	67.81	0.00	0.0617	10.74	472.5	380.82	0.0596	458.4	8.251	16.26	8.34	1.55
	98.41	16.05	67.81	0.00	0.0617	10.74	472.6	380.84	0.0596	458.3	8.249	16.25	8.34	1.55
	99.40	16.04	67.83	0.00	0.0617	10.74	472.6	380.68	0.0597	458.7	8.256	16.26	8.35	1.55
	100.40	16.05	67.81	0.00	0.0617	10.75	472.8	381.05	0.0597	459.2	8.266	16.28	8.37	1.55
	101.42	16.05	67.83	-0.00	0.0617	10.75	472.9	380.94	0.0597	460.0	8.279	16.30	8.39	1.55
	102.40	16.05	67.83	0.00	0.0618	10.75	472.9	380.96	0.0598	460.2	8.284	16.31	8.40	1.55
	103.40	16.07	67.78	0.00	0.0617	10.74	472.6	381.05	0.0598	459.9	8.278	16.31	8.39	1.55
	104.40	16.09	67.81	0.00	0.0617	10.74	472.5	380.86	0.0598	459.8	8.276	16.31	8.39	1.55
	105.41	16.07	67.81	-0.00	0.0617	10.74	472.5	380.81	0.0598	460.2	8.283	16.32	8.40	1.56
	106.41	16.07	67.81	-0.00	0.0617	10.73	472.2	380.59	0.0597	460.3	8.286	16.33	8.41	1.56
	107.39	16.09	67.81	-0.00	0.0616	10.72	471.9	380.31	0.0597	460.2	8.283	16.32	8.40	1.55
	108.47	16.07	67.81	0.00	0.0616	10.72	471.8	380.25	0.0598	460.2	8.283	16.32	8.40	1.55
	109.39	16.09	67.81	0.00	0.0616	10.73	472.1	380.54	0.0598	460.6	8.290	16.33	8.41	1.55
	110.39	16.09	67.81	0.00	0.0617	10.73	471.9	380.37	0.0598	460.1	8.282	16.32	8.40	1.56
	111.39	16.09	67.81	-0.00	0.0616	10.72	471.9	380.33	0.0598	460.6	8.291	16.33	8.41	1.56
	112.48	16.09	67.81	0.00	0.0616	10.71	471.4	379.97	0.0598	460.3	8.285	16.32	8.40	1.56
	113.40	16.09	67.81	0.00	0.0616	10.71	471.3	379.88	0.0598	460.6	8.291	16.33	8.41	1.56
	114.41	16.10	67.81	-0.00	0.0616	10.71	471.4	379.96	0.0598	461.0	8.298	16.35	8.43	1.56
	115.41	16.10	67.83	-0.00	0.0616	10.72	471.6	380.01	0.0599	460.9	8.296	16.34	8.42	1.56
	116.41	16.10	67.81	0.00	0.0616	10.71	471.4	379.96	0.0599	460.6	8.290	16.33	8.41	1.56
	117.41	16.10	67.81	-0.00	0.0616	10.72	471.8	380.29	0.0598	461.0	8.298	16.35	8.43	1.56
	118.39	16.09	67.81	0.00	0.0616	10.72	471.6	380.09	0.0598	461.0	8.297	16.35	8.43	1.56
	119.39	16.10	67.81	0.00	0.0616	10.71	471.4	379.98	0.0599	461.1	8.300	16.35	8.43	1.56
	120.39	16.12	67.81	0.00	0.0616	10.72	471.5	380.06	0.0599	461.3	8.303	16.36	8.44	1.56
	121.40	16.10	67.81	0.00	0.0616	10.71	471.3	379.88	0.0598	460.8	8.294	16.34	8.42	1.56
	122.38	16.12	67.81	0.00	0.0616	10.71	471.0	379.69	0.0598	460.8	8.294	16.34	8.42	1.56
	123.40	16.13	67.81	0.00	0.0616	10.71	471.3	379.93	0.0599	461.3	8.303	16.36	8.44	1.56
