Jul 25 2015 at 16:02:07
Frequency: 1.00Hz.
CO2
Zero:  Value:0.95  Date:18 Mar 2005	 at 07:22:33	
Span:  Value:1.00  Date:18 Mar 2005	 at 07:25:09	
H2O
Zero:  Value:0.71  Date:18 Mar 2005	 at 07:52:31	
Span:  Value:0.99  Date:18 Mar 2005	 at 11:44:01	
	Relative Time	Temperature	Pressure	Aux Input	CO2 Absorptance	CO2 mmol/m3	CO2 mg/m3	CO2 umol/mol	H2O Absorptance	H2O mmol/m3	H2O g/m3	H2O mmol/mol	H2O(°C)	Cooler Voltage
	0.30	33.25	67.70	-0.00	0.0618	10.77	474.1	405.41	0.0500	356.5	6.418	13.42	5.52	1.65
	1.29	33.25	67.68	0.00	0.0618	10.76	473.4	404.96	0.0509	367.4	6.613	13.83	5.96	1.65
	2.31	33.25	67.72	-0.00	0.0617	10.76	473.3	404.58	0.0509	365.1	6.571	13.73	5.86	1.65
	3.29	33.29	67.70	-0.00	0.0619	10.74	472.5	404.15	0.0529	377.3	6.791	14.20	6.34	1.66
	4.31	33.27	67.72	-0.00	0.0618	10.74	472.7	404.16	0.0527	382.7	6.889	14.40	6.55	1.66
	5.30	33.27	67.70	-0.00	0.0617	10.75	473.2	404.65	0.0528	385.5	6.939	14.51	6.65	1.65
	6.29	33.29	67.70	0.00	0.0617	10.75	473.0	404.57	0.0528	387.3	6.972	14.58	6.72	1.65
	7.32	33.30	67.70	0.00	0.0616	10.71	471.4	403.18	0.0522	381.5	6.867	14.36	6.50	1.65
	8.31	33.31	67.70	-0.00	0.0616	10.71	471.3	403.15	0.0521	380.0	6.839	14.30	6.44	1.65
	9.30	33.31	67.70	0.00	0.0615	10.69	470.4	402.33	0.0531	390.7	7.032	14.70	6.85	1.66
	10.31	33.35	67.72	0.00	0.0615	10.68	469.8	401.73	0.0535	395.0	7.110	14.86	7.01	1.66
	11.31	33.38	67.70	0.00	0.0613	10.65	468.5	400.81	0.0535	395.0	7.110	14.87	7.01	1.65
	12.31	33.37	67.68	0.00	0.0612	10.59	465.8	398.63	0.0541	394.0	7.093	14.84	6.98	1.65
	13.29	33.39	67.73	-0.00	0.0614	10.68	469.7	401.71	0.0546	403.9	7.271	15.20	7.34	1.65
	14.30	33.40	67.68	-0.00	0.0611	10.62	467.4	400.04	0.0539	400.0	7.201	15.07	7.20	1.65
	15.30	33.41	67.70	-0.00	0.0612	10.64	468.0	400.44	0.0537	397.8	7.161	14.98	7.12	1.65
	16.30	33.44	67.68	0.00	0.0611	10.61	467.1	399.79	0.0541	400.7	7.213	15.09	7.23	1.65
	17.30	33.38	67.70	-0.00	0.0612	10.62	467.3	399.83	0.0556	415.2	7.473	15.63	7.74	1.65
	18.30	33.38	67.70	-0.00	0.0612	10.60	466.3	398.98	0.0555	412.3	7.421	15.52	7.64	1.65
	19.30	33.39	67.67	0.00	0.0612	10.63	467.8	400.38	0.0567	426.8	7.682	16.07	8.15	1.65
	20.30	33.36	67.70	-0.00	0.0612	10.64	468.0	400.33	0.0572	433.6	7.804	16.32	8.38	1.65
	21.28	33.40	67.70	0.00	0.0610	10.58	465.4	398.16	0.0555	414.7	7.465	15.61	7.73	1.65
	22.32	33.40	67.73	0.00	0.0610	10.61	466.7	399.17	0.0549	420.4	7.568	15.82	7.93	1.65
	23.39	33.43	67.72	-0.00	0.0610	10.59	466.1	398.71	0.0546	410.2	7.383	15.44	7.57	1.65
	24.37	33.42	67.72	0.00	0.0611	10.61	466.7	399.18	0.0556	417.2	7.509	15.70	7.81	1.65
	25.30	33.41	67.70	-0.00	0.0611	10.63	467.9	400.36	0.0572	434.1	7.814	16.34	8.40	1.65
	26.30	33.44	67.70	-0.00	0.0612	10.63	467.9	400.32	0.0571	435.6	7.840	16.40	8.45	1.65
	27.30	33.38	67.73	0.00	0.0611	10.59	466.1	398.65	0.0568	425.5	7.658	16.01	8.10	1.65
	28.30	33.37	67.72	-0.00	0.0611	10.62	467.1	399.44	0.0569	433.3	7.799	16.30	8.37	1.65
	29.30	33.42	67.68	0.00	0.0611	10.62	467.3	400.00	0.0568	433.7	7.807	16.34	8.39	1.65
	30.30	33.41	67.68	0.00	0.0611	10.59	465.9	398.76	0.0563	427.3	7.691	16.09	8.17	1.65
	31.31	33.38	67.70	-0.00	0.0612	10.60	466.5	399.09	0.0565	427.4	7.693	16.09	8.17	1.65
	32.29	33.30	67.68	0.00	0.0610	10.59	465.8	398.55	0.0564	422.2	7.600	15.90	7.99	1.65
	33.31	33.34	67.70	-0.00	0.0610	10.61	466.7	399.23	0.0562	422.7	7.609	15.91	8.00	1.65
	34.30	33.31	67.70	-0.00	0.0609	10.53	463.5	396.40	0.0567	418.5	7.532	15.75	7.85	1.65
	35.29	33.33	67.73	0.00	0.0611	10.61	466.9	399.18	0.0576	441.7	7.950	16.62	8.65	1.65
	36.30	33.36	67.70	0.00	0.0609	10.56	464.8	397.64	0.0567	429.4	7.730	16.16	8.24	1.65
	37.30	33.36	67.68	0.00	0.0609	10.56	464.9	397.82	0.0565	423.8	7.629	15.96	8.04	1.65
	38.28	33.32	67.73	0.00	0.0610	10.59	465.9	398.32	0.0581	443.3	7.979	16.68	8.70	1.65
	39.28	33.33	67.70	0.00	0.0607	10.57	465.0	397.75	0.0572	444.8	8.006	16.74	8.75	1.65
	40.30	33.31	67.70	0.00	0.0611	10.60	466.4	398.88	0.0605	465.0	8.371	17.50	9.41	1.65
	41.29	33.31	67.72	0.00	0.0608	10.58	465.6	398.07	0.0582	451.4	8.125	16.98	8.97	1.65
	42.29	33.33	67.70	-0.00	0.0610	10.57	465.3	397.97	0.0578	437.2	7.870	16.45	8.50	1.65
	43.29	33.29	67.70	0.00	0.0611	10.60	466.6	399.06	0.0599	454.6	8.183	17.11	9.08	1.65
	44.30	33.32	67.68	0.00	0.0611	10.60	466.5	399.12	0.0586	461.7	8.311	17.38	9.31	1.65
	45.30	33.29	67.70	-0.00	0.0609	10.60	466.3	398.87	0.0573	435.7	7.843	16.40	8.45	1.65
	46.30	33.29	67.72	0.00	0.0610	10.59	466.0	398.45	0.0589	459.1	8.263	17.27	9.22	1.65
	47.30	33.27	67.70	0.00	0.0607	10.54	463.7	396.57	0.0575	438.8	7.899	16.51	8.55	1.65
	48.36	33.25	67.70	0.00	0.0610	10.59	466.1	398.62	0.0610	472.8	8.510	17.79	9.66	1.65
	49.31	33.26	67.67	-0.00	0.0610	10.59	465.8	398.51	0.0612	479.3	8.628	18.04	9.86	1.65
	50.30	33.25	67.70	0.00	0.0609	10.57	465.0	397.69	0.0615	474.1	8.534	17.84	9.70	1.65
	51.37	33.27	67.68	-0.00	0.0609	10.56	464.8	397.69	0.0612	477.2	8.590	17.96	9.80	1.65
	52.29	33.27	67.72	0.00	0.0609	10.56	464.5	397.08	0.0615	480.2	8.644	18.06	9.89	1.65
	53.31	33.29	67.70	-0.00	0.0609	10.57	464.9	397.60	0.0620	486.1	8.751	18.29	10.07	1.65
	54.29	33.25	67.70	0.00	0.0606	10.52	462.7	395.67	0.0600	467.7	8.419	17.60	9.50	1.65
	55.30	33.27	67.75	-0.00	0.0609	10.58	465.4	397.73	0.0622	486.2	8.752	18.28	10.07	1.65
	56.30	33.19	67.70	-0.00	0.0608	10.54	463.9	396.64	0.0614	482.1	8.677	18.13	9.94	1.65
	57.28	33.20	67.68	0.00	0.0609	10.56	464.7	397.47	0.0613	479.5	8.631	18.05	9.86	1.65
	58.30	33.22	67.70	0.00	0.0608	10.52	462.7	395.64	0.0612	470.5	8.469	17.70	9.58	1.65
	59.37	33.22	67.70	0.00	0.0608	10.56	464.5	397.22	0.0615	482.7	8.688	18.16	9.96	1.65
	60.29	33.25	67.70	0.00	0.0608	10.54	463.6	396.50	0.0605	469.4	8.449	17.66	9.55	1.65
	61.31	33.22	67.70	0.00	0.0608	10.56	464.6	397.27	0.0605	470.1	8.461	17.69	9.57	1.65
	62.31	33.28	67.70	-0.00	0.0608	10.54	463.6	396.47	0.0616	479.0	8.623	18.03	9.85	1.65
	63.29	33.25	67.68	0.00	0.0608	10.52	463.0	396.07	0.0621	480.7	8.653	18.10	9.90	1.65
	64.30	33.22	67.68	-0.00	0.0608	10.51	462.6	395.73	0.0619	478.3	8.610	18.00	9.83	1.65
	65.30	33.25	67.68	-0.00	0.0608	10.55	464.1	397.00	0.0619	481.4	8.665	18.12	9.92	1.65
	66.28	33.22	67.70	0.00	0.0608	10.53	463.3	396.18	0.0621	483.3	8.699	18.18	9.98	1.65
	67.28	33.20	67.70	0.00	0.0607	10.52	463.0	395.92	0.0616	483.5	8.702	18.19	9.99	1.65
	68.31	33.20	67.68	-0.00	0.0607	10.52	463.0	396.00	0.0615	482.3	8.681	18.15	9.95	1.65
	69.30	33.16	67.70	-0.00	0.0607	10.54	463.7	396.46	0.0621	490.2	8.824	18.44	10.19	1.65
	70.28	33.14	67.70	0.00	0.0608	10.53	463.4	396.12	0.0615	478.5	8.614	18.00	9.83	1.65
	71.29	33.16	67.70	0.00	0.0608	10.52	463.0	395.84	0.0621	493.6	8.885	18.57	10.30	1.65
	72.29	33.21	67.70	0.00	0.0608	10.52	462.8	395.69	0.0629	479.8	8.636	18.05	9.87	1.65
	73.29	33.18	67.70	0.00	0.0607	10.52	462.9	395.82	0.0630	492.9	8.873	18.54	10.28	1.66
	74.30	33.18	67.70	0.00	0.0607	10.51	462.6	395.50	0.0631	497.4	8.953	18.71	10.41	1.65
	75.38	33.20	67.68	-0.00	0.0607	10.52	463.0	396.00	0.0632	497.9	8.963	18.74	10.43	1.65
	76.30	33.19	67.70	0.00	0.0606	10.51	462.3	395.29	0.0622	486.9	8.764	18.32	10.09	1.65
	77.30	33.16	67.72	0.00	0.0607	10.52	462.8	395.56	0.0629	494.9	8.908	18.61	10.33	1.65
	78.31	33.17	67.72	-0.00	0.0607	10.51	462.4	395.21	0.0631	494.9	8.908	18.61	10.33	1.65
	79.36	33.14	67.68	0.00	0.0606	10.51	462.5	395.54	0.0628	499.6	8.993	18.80	10.48	1.65
	80.28	33.14	67.73	0.00	0.0607	10.51	462.6	395.28	0.0641	507.6	9.137	19.09	10.71	1.65
	81.31	33.13	67.70	0.00	0.0607	10.52	463.0	395.80	0.0641	508.7	9.157	19.13	10.75	1.65
	82.29	33.11	67.70	0.00	0.0606	10.51	462.4	395.26	0.0636	505.6	9.101	19.02	10.65	1.65
	83.29	33.01	67.68	-0.00	0.0606	10.51	462.6	395.38	0.0638	510.9	9.196	19.21	10.80	1.65
	84.32	33.04	67.73	-0.00	0.0606	10.50	462.1	394.74	0.0633	500.5	9.010	18.81	10.50	1.65
	85.30	33.08	67.70	0.00	0.0605	10.48	461.0	394.07	0.0631	497.4	8.952	18.70	10.40	1.65
	86.36	33.05	67.70	0.00	0.0606	10.50	461.8	394.68	0.0638	504.8	9.086	18.98	10.63	1.65
	87.31	33.09	67.68	-0.00	0.0607	10.50	462.2	395.17	0.0649	510.0	9.180	19.19	10.78	1.65
	88.30	33.09	67.68	0.00	0.0606	10.49	461.7	394.76	0.0639	511.2	9.202	19.23	10.82	1.65
	89.30	33.05	67.65	0.00	0.0606	10.49	461.7	394.91	0.0643	511.6	9.208	19.25	10.83	1.65
	90.29	33.11	67.70	0.00	0.0607	10.50	462.2	395.07	0.0655	522.4	9.402	19.65	11.14	1.65
	91.31	33.06	67.67	0.00	0.0605	10.50	461.9	394.88	0.0647	520.6	9.371	19.58	11.09	1.66
	92.29	33.05	67.70	0.00	0.0606	10.51	462.3	395.06	0.0651	521.9	9.394	19.62	11.13	1.65
	93.30	33.07	67.68	-0.00	0.0606	10.50	462.0	395.04	0.0658	524.5	9.442	19.73	11.20	1.65
	94.29	33.04	67.68	0.00	0.0605	10.49	461.4	394.45	0.0645	518.5	9.334	19.51	11.03	1.65
	95.28	33.06	67.68	0.00	0.0605	10.48	461.3	394.38	0.0649	520.2	9.363	19.57	11.08	1.65
	96.30	33.04	67.70	-0.00	0.0606	10.50	461.8	394.69	0.0661	530.0	9.539	19.93	11.36	1.65
	97.30	33.04	67.70	-0.00	0.0605	10.49	461.5	394.41	0.0653	526.0	9.467	19.78	11.24	1.66
	98.28	33.09	67.70	0.00	0.0606	10.50	462.0	394.85	0.0649	522.0	9.396	19.63	11.13	1.65
	99.30	33.04	67.70	0.00	0.0605	10.46	460.4	393.48	0.0654	516.9	9.304	19.43	10.98	1.65
	100.29	33.04	67.70	0.00	0.0607	10.50	462.0	394.83	0.0665	537.2	9.669	20.20	11.56	1.65
	101.31	33.07	67.70	-0.00	0.0606	10.48	461.1	394.11	0.0653	519.6	9.353	19.54	11.06	1.65
	102.31	33.05	67.70	0.00	0.0606	10.49	461.6	394.48	0.0651	521.3	9.384	19.60	11.11	1.65
	103.30	33.10	67.70	0.00	0.0606	10.49	461.4	394.33	0.0651	519.5	9.350	19.54	11.06	1.66
	104.29	33.14	67.73	0.00	0.0605	10.49	461.5	394.36	0.0655	525.9	9.466	19.77	11.25	1.65
	105.30	33.10	67.70	0.00	0.0606	10.49	461.6	394.59	0.0658	527.8	9.500	19.85	11.30	1.65
	106.30	33.11	67.70	0.00	0.0605	10.47	460.9	393.97	0.0653	524.3	9.437	19.72	11.20	1.65
	107.30	33.09	67.70	-0.00	0.0606	10.49	461.4	394.32	0.0657	528.4	9.511	19.87	11.32	1.65
	108.30	33.06	67.72	0.00	0.0605	10.47	460.8	393.67	0.0658	530.6	9.551	19.95	11.38	1.66
	109.29	33.03	67.70	0.00	0.0605	10.48	461.1	394.04	0.0657	528.9	9.519	19.88	11.33	1.66
	110.29	33.00	67.70	-0.00	0.0604	10.45	460.0	393.06	0.0655	526.0	9.468	19.78	11.24	1.65
	111.31	33.04	67.70	-0.00	0.0605	10.49	461.4	394.32	0.0661	535.5	9.639	20.14	11.52	1.65
	112.31	33.04	67.73	-0.00	0.0604	10.47	460.5	393.39	0.0656	527.3	9.491	19.82	11.28	1.65
	113.29	33.07	67.67	0.00	0.0605	10.47	460.5	393.71	0.0659	531.9	9.574	20.01	11.41	1.65
	114.38	33.02	67.70	0.00	0.0606	10.49	461.7	394.50	0.0665	538.2	9.688	20.24	11.59	1.66
	115.30	33.04	67.70	0.00	0.0605	10.48	461.3	394.24	0.0660	531.9	9.574	20.00	11.41	1.66
	116.31	33.02	67.68	-0.00	0.0605	10.48	461.0	394.06	0.0660	531.8	9.573	20.00	11.41	1.65
	117.30	33.07	67.70	-0.00	0.0604	10.46	460.2	393.31	0.0654	525.3	9.455	19.75	11.22	1.66
	118.30	33.04	67.68	0.00	0.0604	10.46	460.2	393.37	0.0655	524.4	9.439	19.72	11.20	1.65
