Jul 25 2015 at 14:10:28
Frequency: 1.00Hz.
CO2
Zero:  Value:0.95  Date:18 Mar 2005	 at 07:22:33	
Span:  Value:1.00  Date:18 Mar 2005	 at 07:25:09	
H2O
Zero:  Value:0.71  Date:18 Mar 2005	 at 07:52:31	
Span:  Value:0.99  Date:18 Mar 2005	 at 11:44:01	
	Relative Time	Temperature	Pressure	Aux Input	CO2 Absorptance	CO2 mmol/m3	CO2 mg/m3	CO2 umol/mol	H2O Absorptance	H2O mmol/m3	H2O g/m3	H2O mmol/mol	H2O(°C)	Cooler Voltage
	0.89	35.24	70.23	0.00	0.0614	10.59	465.8	386.49	0.0640	500.1	9.002	18.26	10.59	1.80
	1.90	35.30	70.20	0.00	0.0615	10.59	465.8	386.74	0.0641	500.5	9.009	18.28	10.61	1.80
	2.90	35.32	70.20	0.00	0.0616	10.61	466.8	387.58	0.0641	501.8	9.032	18.33	10.65	1.80
	3.90	35.31	70.20	0.00	0.0616	10.61	466.8	387.55	0.0642	501.6	9.029	18.32	10.64	1.80
	4.90	35.34	70.23	0.00	0.0616	10.59	466.1	386.91	0.0642	501.9	9.035	18.33	10.65	1.80
	5.90	35.33	70.18	0.00	0.0615	10.57	465.1	386.31	0.0648	508.8	9.158	18.59	10.86	1.80
	6.91	35.37	70.25	-0.00	0.0614	10.57	465.0	385.84	0.0649	509.6	9.174	18.61	10.88	1.80
	7.89	35.37	70.23	0.00	0.0615	10.59	465.8	386.68	0.0651	512.4	9.223	18.72	10.96	1.80
	8.89	35.33	70.20	0.00	0.0616	10.60	466.5	387.34	0.0651	511.3	9.203	18.68	10.93	1.80
	9.91	35.39	70.23	-0.00	0.0616	10.60	466.3	387.09	0.0659	516.3	9.294	18.86	11.08	1.80
	10.90	35.36	70.20	-0.00	0.0618	10.64	468.2	388.76	0.0670	532.9	9.593	19.47	11.56	1.80
	11.92	35.40	70.20	-0.00	0.0616	10.61	466.8	387.66	0.0675	539.5	9.710	19.71	11.74	1.80
	12.92	35.41	70.17	-0.00	0.0616	10.60	466.3	387.45	0.0677	537.2	9.670	19.64	11.68	1.80
	13.88	35.41	70.18	0.00	0.0614	10.57	465.2	386.50	0.0670	540.7	9.733	19.77	11.78	1.80
	14.90	35.30	70.23	0.00	0.0615	10.58	465.6	386.38	0.0678	538.0	9.683	19.64	11.69	1.80
	15.90	35.21	70.23	-0.00	0.0615	10.58	465.5	386.24	0.0713	573.4	10.322	20.93	12.66	1.80
	16.91	35.23	70.20	-0.00	0.0614	10.55	464.2	385.33	0.0720	592.4	10.664	21.64	13.16	1.80
	17.97	35.23	70.20	0.00	0.0614	10.55	464.3	385.42	0.0721	599.7	10.794	21.90	13.35	1.80
	18.92	35.28	70.23	-0.00	0.0612	10.53	463.3	384.48	0.0751	631.0	11.358	23.04	14.13	1.80
	19.89	35.30	70.20	0.00	0.0612	10.51	462.6	384.02	0.0731	605.5	10.898	22.12	13.50	1.80
	20.90	35.28	70.23	0.00	0.0613	10.53	463.1	384.36	0.0737	607.6	10.936	22.19	13.55	1.80
	21.89	35.32	70.23	0.00	0.0612	10.51	462.6	383.98	0.0738	621.2	11.182	22.69	13.89	1.80
	22.90	35.34	70.23	0.00	0.0609	10.46	460.4	382.17	0.0751	623.1	11.215	22.75	13.94	1.80
	23.88	35.37	70.23	0.00	0.0609	10.46	460.1	381.95	0.0760	637.6	11.478	23.29	14.30	1.80
	24.91	35.37	70.18	0.00	0.0608	10.44	459.2	381.47	0.0784	669.0	12.041	24.45	15.04	1.80
	25.90	35.37	70.20	0.00	0.0608	10.43	458.7	380.91	0.0798	687.2	12.370	25.11	15.46	1.80
	26.91	35.35	70.23	0.00	0.0605	10.35	455.4	378.00	0.0844	738.1	13.286	26.96	16.58	1.80
	27.89	35.37	70.20	0.00	0.0606	10.37	456.4	378.99	0.0822	722.9	13.012	26.41	16.25	1.80
	28.91	35.37	70.20	0.00	0.0607	10.40	457.5	379.90	0.0838	740.4	13.327	27.05	16.63	1.80
	29.91	35.41	70.23	-0.00	0.0605	10.37	456.4	378.91	0.0837	743.0	13.374	27.14	16.68	1.80
	30.90	35.40	70.20	0.00	0.0605	10.36	456.0	378.69	0.0827	732.2	13.179	26.76	16.45	1.80
	31.89	35.42	70.23	0.00	0.0605	10.36	456.0	378.59	0.0838	745.5	13.420	27.24	16.74	1.80
	32.92	35.42	70.20	0.00	0.0604	10.37	456.1	378.83	0.0829	739.5	13.311	27.03	16.61	1.80
	33.90	35.41	70.20	0.00	0.0603	10.32	454.1	377.14	0.0828	732.2	13.180	26.76	16.46	1.80
	34.99	35.36	70.20	-0.00	0.0604	10.35	455.2	377.98	0.0837	742.3	13.362	27.12	16.67	1.80
	35.90	35.42	70.23	0.00	0.0605	10.36	455.7	378.31	0.0836	744.7	13.404	27.20	16.72	1.80
	36.91	35.44	70.23	0.00	0.0604	10.34	454.9	377.70	0.0835	741.3	13.343	27.08	16.65	1.80
	37.91	35.55	70.23	0.00	0.0600	10.28	452.2	375.60	0.0850	760.5	13.689	27.79	17.06	1.80
	38.91	35.49	70.20	0.00	0.0600	10.26	451.2	374.87	0.0841	756.3	13.614	27.65	16.97	1.80
	39.91	35.54	70.20	0.00	0.0599	10.23	450.2	374.10	0.0833	741.7	13.351	27.12	16.66	1.80
	40.98	35.54	70.23	0.00	0.0599	10.24	450.7	374.33	0.0847	754.0	13.573	27.56	16.92	1.80
	41.90	35.50	70.23	0.00	0.0598	10.21	449.4	373.22	0.0856	778.0	14.004	28.43	17.42	1.80
	42.90	35.54	70.23	0.00	0.0599	10.24	450.4	374.06	0.0839	748.3	13.470	27.35	16.80	1.80
	43.91	35.47	70.20	-0.00	0.0598	10.23	450.1	373.90	0.0841	746.0	13.428	27.27	16.75	1.80
	44.90	35.47	70.20	-0.00	0.0599	10.23	450.0	373.84	0.0849	760.0	13.679	27.78	17.04	1.80
	45.90	35.49	70.21	-0.00	0.0597	10.20	448.8	372.80	0.0855	766.1	13.789	28.00	17.17	1.80
	46.89	35.44	70.20	-0.00	0.0597	10.18	448.0	372.14	0.0854	772.3	13.901	28.22	17.30	1.80
	47.92	35.47	70.18	-0.00	0.0598	10.21	449.3	373.39	0.0857	770.1	13.862	28.16	17.25	1.80
	48.91	35.46	70.20	-0.00	0.0600	10.24	450.6	374.33	0.0862	776.7	13.980	28.39	17.39	1.80
	49.92	35.48	70.23	-0.00	0.0599	10.24	450.4	373.98	0.0862	779.0	14.022	28.46	17.44	1.80
	50.90	35.53	70.20	-0.00	0.0597	10.19	448.2	372.35	0.0865	781.4	14.066	28.57	17.49	1.80
	51.90	35.50	70.25	0.00	0.0596	10.17	447.6	371.58	0.0866	783.5	14.104	28.62	17.53	1.80
	52.88	35.52	70.15	0.00	0.0597	10.19	448.3	372.72	0.0870	789.8	14.217	28.89	17.66	1.80
	53.90	35.44	70.18	0.00	0.0596	10.18	447.8	372.07	0.0869	787.4	14.173	28.79	17.60	1.80
	54.90	35.38	70.20	0.00	0.0598	10.20	449.0	372.86	0.0866	785.2	14.133	28.69	17.55	1.80
	55.91	35.41	70.18	0.00	0.0598	10.22	449.7	373.63	0.0868	786.9	14.165	28.77	17.59	1.80
	56.89	35.40	70.23	0.00	0.0598	10.21	449.1	372.84	0.0870	786.0	14.148	28.71	17.57	1.80
	57.91	35.40	70.18	0.00	0.0597	10.20	448.6	372.70	0.0876	798.4	14.371	29.18	17.82	1.80
	58.89	35.40	70.20	0.00	0.0596	10.17	447.3	371.48	0.0892	817.8	14.720	29.88	18.20	1.80
	59.91	35.42	70.20	0.00	0.0596	10.18	447.8	371.89	0.0895	822.1	14.798	30.04	18.29	1.80
	60.92	35.45	70.20	-0.00	0.0597	10.17	447.4	371.61	0.0902	834.4	15.020	30.50	18.53	1.80
	61.90	35.45	70.20	0.00	0.0596	10.17	447.5	371.74	0.0907	839.6	15.112	30.68	18.62	1.80
	62.91	35.40	70.20	-0.00	0.0595	10.16	447.1	371.34	0.0909	845.2	15.214	30.89	18.73	1.80
	63.90	35.45	70.20	0.00	0.0595	10.13	445.6	370.16	0.0908	844.5	15.201	30.87	18.72	1.80
	64.91	35.43	70.20	0.00	0.0595	10.15	446.8	371.06	0.0914	848.6	15.275	31.01	18.80	1.80
	65.89	35.51	70.23	0.00	0.0595	10.15	446.4	370.76	0.0934	880.6	15.850	32.18	19.39	1.80
	66.91	35.49	70.20	0.00	0.0594	10.11	444.9	369.62	0.0936	890.0	16.020	32.53	19.56	1.80
	67.97	35.44	70.20	0.00	0.0593	10.11	444.9	369.55	0.0932	878.5	15.812	32.10	19.35	1.80
	68.91	35.44	70.23	-0.00	0.0592	10.09	444.1	368.74	0.0937	882.3	15.881	32.23	19.42	1.80
	69.90	35.45	70.23	0.00	0.0591	10.08	443.4	368.18	0.0935	883.1	15.896	32.27	19.44	1.80
	70.90	35.40	70.23	0.00	0.0592	10.08	443.3	368.04	0.0941	892.8	16.070	32.61	19.61	1.80
	71.92	35.41	70.20	-0.00	0.0591	10.06	442.8	367.76	0.0945	895.5	16.120	32.73	19.66	1.80
	72.90	35.35	70.20	0.00	0.0591	10.04	441.6	366.71	0.0956	912.4	16.423	33.33	19.96	1.80
	73.88	35.36	70.15	0.00	0.0590	10.03	441.5	366.88	0.0944	894.1	16.093	32.69	19.63	1.80
	74.90	35.41	70.23	0.00	0.0590	10.03	441.4	366.45	0.0953	910.7	16.393	33.27	19.93	1.80
	75.91	35.38	70.23	0.00	0.0590	10.03	441.4	366.42	0.0953	910.4	16.387	33.25	19.92	1.80
	76.89	35.41	70.20	0.00	0.0590	10.03	441.4	366.56	0.0950	910.6	16.391	33.28	19.93	1.80
	77.89	35.40	70.20	0.00	0.0590	10.03	441.2	366.41	0.0945	902.0	16.237	32.96	19.77	1.80
	78.92	35.43	70.23	-0.00	0.0589	10.02	440.9	366.06	0.0948	900.5	16.209	32.90	19.75	1.80
	79.89	35.44	70.20	0.00	0.0588	10.01	440.3	365.74	0.0954	909.0	16.362	33.22	19.90	1.80
	80.90	35.46	70.20	0.00	0.0589	10.02	441.0	366.29	0.0957	914.1	16.454	33.41	19.99	1.80
	81.89	35.47	70.23	0.00	0.0589	10.02	440.8	366.05	0.0956	916.1	16.490	33.47	20.03	1.80
	82.90	35.47	70.20	0.00	0.0590	10.01	440.5	365.87	0.0963	920.8	16.574	33.65	20.11	1.80
	83.90	35.42	70.23	0.00	0.0588	10.01	440.2	365.51	0.0958	916.8	16.503	33.49	20.04	1.80
	84.91	35.42	70.23	0.00	0.0589	10.02	440.7	365.88	0.0967	932.3	16.781	34.06	20.31	1.80
	85.89	35.44	70.18	0.00	0.0589	10.03	441.3	366.64	0.0968	932.9	16.791	34.10	20.32	1.80
	86.91	35.41	70.20	-0.00	0.0588	10.01	440.2	365.63	0.0960	924.7	16.644	33.79	20.18	1.80
	87.89	35.52	70.20	0.00	0.0589	10.01	440.4	365.88	0.0962	923.7	16.627	33.77	20.16	1.80
	88.91	35.50	70.20	-0.00	0.0589	10.01	440.5	365.95	0.0964	923.0	16.614	33.74	20.15	1.80
	89.89	35.52	70.20	0.00	0.0590	10.04	441.7	367.00	0.0962	925.1	16.651	33.82	20.19	1.80
	90.90	35.51	70.20	0.00	0.0589	10.01	440.5	365.93	0.0967	929.5	16.731	33.98	20.26	1.80
	91.90	35.58	70.23	0.00	0.0587	9.99	439.4	365.01	0.0967	934.7	16.824	34.16	20.36	1.80
	92.98	35.53	70.23	0.00	0.0588	9.99	439.6	365.14	0.0965	928.2	16.708	33.92	20.24	1.80
	93.91	35.48	70.20	-0.00	0.0586	9.96	438.4	364.17	0.0963	927.0	16.686	33.88	20.22	1.80
	94.90	35.47	70.23	0.00	0.0587	9.98	439.0	364.54	0.0964	925.3	16.656	33.81	20.19	1.80
	95.89	35.42	70.23	0.00	0.0587	9.97	438.9	364.38	0.0970	933.2	16.798	34.09	20.32	1.80
	96.89	35.44	70.18	0.00	0.0584	9.93	436.7	362.85	0.0983	954.5	17.181	34.89	20.69	1.80
	97.89	35.42	70.20	0.00	0.0585	9.93	437.1	363.02	0.0985	962.1	17.317	35.16	20.82	1.80
	98.91	35.38	70.20	-0.00	0.0585	9.92	436.4	362.43	0.0972	939.8	16.917	34.34	20.44	1.80
	99.89	35.45	70.23	0.00	0.0585	9.91	436.2	362.16	0.0976	945.5	17.019	34.54	20.54	1.80
	100.90	35.42	70.20	-0.00	0.0586	9.95	437.8	363.61	0.0972	938.2	16.888	34.29	20.41	1.80
	101.90	35.40	70.20	-0.00	0.0587	9.96	438.4	364.10	0.0975	941.3	16.943	34.40	20.46	1.80
	102.90	35.42	70.23	0.00	0.0586	9.95	437.8	363.46	0.0976	941.0	16.937	34.38	20.46	1.80
	103.99	35.38	70.15	-0.00	0.0586	9.95	437.7	363.76	0.0976	945.4	17.016	34.57	20.53	1.80
	104.89	35.29	70.20	0.00	0.0585	9.92	436.5	362.39	0.0981	952.8	17.151	34.80	20.65	1.80
	105.91	35.26	70.23	0.00	0.0584	9.93	437.1	362.67	0.0981	954.3	17.177	34.84	20.68	1.80
	106.89	35.15	70.13	0.00	0.0584	9.90	435.7	361.93	0.0988	960.1	17.282	35.09	20.77	1.80
	107.91	35.23	70.23	0.00	0.0583	9.90	435.6	361.40	0.0988	963.2	17.338	35.16	20.83	1.80
	108.89	35.23	70.23	0.00	0.0583	9.89	435.0	360.90	0.0991	966.3	17.394	35.28	20.88	1.80
	109.90	35.28	70.17	0.00	0.0583	9.88	434.8	361.11	0.0989	965.3	17.376	35.28	20.87	1.80
	110.90	35.26	70.20	0.00	0.0583	9.89	435.0	361.06	0.0988	963.5	17.344	35.19	20.83	1.80
	111.90	35.20	70.20	-0.00	0.0585	9.93	436.8	362.56	0.0994	972.9	17.512	35.53	20.99	1.80
	112.90	35.26	70.23	0.00	0.0582	9.89	435.0	360.95	0.0984	958.4	17.252	34.99	20.75	1.80
	113.90	35.34	70.20	0.00	0.0583	9.90	435.4	361.52	0.0989	964.0	17.352	35.22	20.85	1.80
	114.91	35.37	70.23	-0.00	0.0583	9.88	434.7	360.85	0.0993	972.9	17.513	35.54	21.00	1.80
	115.89	35.36	70.18	-0.00	0.0582	9.87	434.1	360.60	0.0989	969.7	17.454	35.44	20.94	1.80
	116.89	35.40	70.23	0.00	0.0582	9.86	433.9	360.19	0.0991	966.2	17.391	35.29	20.89	1.80
	117.91	35.40	70.20	-0.00	0.0582	9.86	433.9	360.38	0.0995	973.1	17.516	35.56	21.00	1.80
	118.90	35.38	70.18	0.00	0.0582	9.87	434.4	360.83	0.0996	975.5	17.558	35.65	21.04	1.80
	119.89	35.45	70.23	0.00	0.0581	9.84	433.1	359.63	0.0996	974.5	17.542	35.60	21.03	1.80
	120.92	35.47	70.18	-0.00	0.0582	9.85	433.5	360.22	0.1000	981.0	17.658	35.87	21.14	1.80
	121.90	35.49	70.20	0.00	0.0581	9.85	433.2	359.91	0.1001	985.3	17.735	36.01	21.21	1.81
	122.91	35.48	70.23	-0.00	0.0582	9.86	433.9	360.35	0.1006	990.8	17.834	36.20	21.30	1.80
	123.88	35.53	70.20	0.00	0.0581	9.85	433.3	359.97	0.1004	989.1	17.804	36.16	21.27	1.80
	124.89	35.56	70.15	0.00	0.0582	9.85	433.5	360.47	0.1006	990.9	17.836	36.25	21.31	1.80
