Jul 25 2015 at 16:50:19
Frequency: 1.00Hz.
CO2
Zero:  Value:0.95  Date:18 Mar 2005	 at 07:22:33	
Span:  Value:1.00  Date:18 Mar 2005	 at 07:25:09	
H2O
Zero:  Value:0.71  Date:18 Mar 2005	 at 07:52:31	
Span:  Value:0.99  Date:18 Mar 2005	 at 11:44:01	
	Relative Time	Temperature	Pressure	Aux Input	CO2 Absorptance	CO2 mmol/m3	CO2 mg/m3	CO2 umol/mol	H2O Absorptance	H2O mmol/m3	H2O g/m3	H2O mmol/mol	H2O(°C)	Cooler Voltage
	0.25	34.49	67.68	0.00	0.0614	10.68	470.0	403.71	0.0563	424.4	7.640	16.04	8.12	1.64
	1.25	34.46	67.74	0.00	0.0613	10.67	469.3	402.69	0.0563	423.7	7.626	15.99	8.09	1.65
	2.28	34.50	67.67	-0.00	0.0614	10.68	470.0	403.70	0.0569	429.0	7.721	16.21	8.28	1.64
	3.25	34.49	67.70	0.00	0.0613	10.66	469.2	402.88	0.0575	437.5	7.875	16.53	8.57	1.64
	4.28	34.50	67.70	-0.00	0.0611	10.61	467.0	401.00	0.0575	431.8	7.772	16.31	8.37	1.64
	5.26	34.51	67.70	0.00	0.0612	10.64	468.1	402.02	0.0576	436.4	7.855	16.49	8.53	1.64
	6.32	34.52	67.68	0.00	0.0611	10.62	467.1	401.26	0.0578	438.8	7.898	16.59	8.61	1.64
	7.27	34.52	67.65	-0.00	0.0610	10.59	465.8	400.27	0.0577	437.3	7.872	16.54	8.56	1.64
	8.27	34.53	67.70	0.00	0.0610	10.53	463.2	397.78	0.0578	438.5	7.893	16.57	8.60	1.64
	9.27	34.49	67.70	0.00	0.0612	10.62	467.4	401.29	0.0585	444.9	8.008	16.81	8.81	1.64
	10.25	34.48	67.68	0.00	0.0610	10.61	466.7	400.90	0.0585	449.2	8.086	16.98	8.96	1.64
	11.25	34.48	67.66	0.00	0.0609	10.57	464.9	399.44	0.0581	443.4	7.980	16.76	8.76	1.64
	12.26	34.52	67.67	0.00	0.0609	10.53	463.2	397.91	0.0588	444.8	8.006	16.81	8.81	1.64
	13.26	34.49	67.70	-0.00	0.0609	10.57	464.9	399.22	0.0589	451.6	8.128	17.06	9.03	1.64
	14.26	34.52	67.65	0.00	0.0609	10.57	464.9	399.53	0.0587	450.3	8.105	17.03	8.99	1.64
	15.26	34.51	67.67	0.00	0.0609	10.56	464.6	399.16	0.0586	448.7	8.077	16.96	8.94	1.64
	16.26	34.53	67.65	-0.00	0.0611	10.59	466.1	400.57	0.0609	463.8	8.348	17.54	9.43	1.64
	17.24	34.59	67.67	0.00	0.0610	10.59	466.0	400.43	0.0600	463.1	8.335	17.51	9.41	1.64
	18.28	34.58	67.68	-0.00	0.0611	10.59	465.9	400.31	0.0602	464.0	8.353	17.54	9.44	1.64
	19.28	34.65	67.68	-0.00	0.0611	10.60	466.4	400.80	0.0597	459.4	8.270	17.37	9.30	1.64
	20.27	34.61	67.65	-0.00	0.0612	10.62	467.3	401.69	0.0597	460.3	8.285	17.41	9.32	1.64
	21.26	34.61	67.65	0.00	0.0612	10.62	467.3	401.67	0.0597	458.9	8.260	17.36	9.28	1.64
	22.28	34.61	67.67	-0.00	0.0612	10.62	467.2	401.45	0.0610	478.3	8.610	18.09	9.89	1.64
	23.26	34.58	67.68	0.00	0.0610	10.61	466.7	400.98	0.0611	477.5	8.595	18.05	9.87	1.64
	24.27	34.60	67.68	-0.00	0.0611	10.62	467.1	401.37	0.0615	479.6	8.633	18.13	9.94	1.64
	25.27	34.58	67.65	-0.00	0.0610	10.59	465.9	400.46	0.0613	478.4	8.611	18.09	9.90	1.64
	26.25	34.64	67.67	0.00	0.0609	10.57	465.0	399.62	0.0613	479.0	8.622	18.11	9.92	1.64
	27.32	34.63	67.68	0.00	0.0609	10.57	464.9	399.51	0.0611	474.9	8.549	17.96	9.79	1.64
	28.27	34.58	67.65	-0.00	0.0609	10.57	465.2	399.83	0.0612	474.8	8.547	17.96	9.78	1.64
	29.27	34.61	67.67	0.00	0.0610	10.58	465.3	399.87	0.0614	477.2	8.590	18.04	9.86	1.64
	30.26	34.63	67.70	0.00	0.0610	10.57	465.1	399.55	0.0615	477.5	8.594	18.05	9.87	1.64
	31.26	34.61	67.67	0.00	0.0610	10.58	465.4	399.91	0.0615	479.4	8.628	18.12	9.93	1.64
	32.26	34.66	67.70	0.00	0.0609	10.58	465.4	399.86	0.0617	482.6	8.686	18.24	10.03	1.64
	33.27	34.60	67.70	-0.00	0.0609	10.56	464.5	399.01	0.0619	482.0	8.675	18.21	10.01	1.64
	34.27	34.60	67.67	-0.00	0.0609	10.57	465.2	399.76	0.0622	487.5	8.775	18.43	10.18	1.64
	35.27	34.62	67.70	-0.00	0.0609	10.56	464.5	399.01	0.0621	488.0	8.784	18.44	10.20	1.64
	36.27	34.63	67.68	-0.00	0.0609	10.57	464.9	399.51	0.0624	488.7	8.796	18.48	10.22	1.64
	37.27	34.60	67.67	0.00	0.0608	10.54	463.6	398.39	0.0630	495.4	8.917	18.73	10.42	1.64
	38.27	34.56	67.68	-0.00	0.0609	10.56	464.6	399.15	0.0637	500.8	9.015	18.93	10.58	1.64
	39.27	34.53	67.67	-0.00	0.0608	10.54	463.8	398.49	0.0639	508.2	9.148	19.21	10.80	1.64
	40.26	34.56	67.67	0.00	0.0609	10.55	464.2	398.88	0.0634	503.8	9.069	19.05	10.67	1.64
	41.26	34.53	67.68	0.00	0.0609	10.56	464.5	399.02	0.0635	501.3	9.024	18.95	10.59	1.64
	42.24	34.56	67.70	0.00	0.0609	10.56	464.7	399.15	0.0633	501.0	9.019	18.93	10.59	1.64
	43.26	34.56	67.65	0.00	0.0608	10.54	463.9	398.72	0.0638	507.2	9.130	19.18	10.77	1.64
	44.26	34.59	67.67	0.00	0.0608	10.54	463.7	398.46	0.0641	511.2	9.201	19.33	10.89	1.64
	45.26	34.53	67.67	0.00	0.0607	10.51	462.4	397.26	0.0635	504.7	9.085	19.08	10.70	1.64
	46.27	34.59	67.68	0.00	0.0607	10.50	462.0	396.91	0.0639	501.9	9.035	18.97	10.61	1.64
	47.35	34.55	67.65	-0.00	0.0607	10.53	463.4	398.22	0.0639	506.8	9.123	19.17	10.76	1.64
	48.27	34.52	67.65	-0.00	0.0608	10.54	463.8	398.58	0.0648	513.5	9.244	19.42	10.96	1.64
	49.28	34.43	67.65	0.00	0.0608	10.54	463.5	398.24	0.0643	512.1	9.218	19.36	10.91	1.64
	50.26	34.49	67.70	0.00	0.0607	10.53	463.2	397.74	0.0650	516.5	9.297	19.51	11.04	1.64
	51.26	34.50	67.67	-0.00	0.0608	10.53	463.4	398.04	0.0651	523.6	9.425	19.79	11.25	1.64
	52.26	34.47	67.65	0.00	0.0607	10.52	462.7	397.55	0.0650	519.1	9.344	19.63	11.12	1.64
	53.27	34.52	67.67	-0.00	0.0607	10.52	462.8	397.59	0.0649	518.2	9.327	19.59	11.09	1.64
	54.34	34.51	67.60	-0.00	0.0607	10.51	462.5	397.76	0.0653	520.7	9.373	19.70	11.16	1.64
	55.33	34.56	67.67	0.00	0.0607	10.51	462.6	397.42	0.0658	528.1	9.507	19.97	11.38	1.64
	56.25	34.58	67.70	0.00	0.0607	10.52	462.9	397.57	0.0658	529.2	9.525	20.00	11.41	1.64
	57.27	34.59	67.67	-0.00	0.0607	10.52	462.9	397.73	0.0661	532.6	9.587	20.14	11.51	1.64
	58.33	34.62	67.70	0.00	0.0607	10.51	462.5	397.33	0.0668	541.0	9.737	20.45	11.75	1.64
	59.27	34.65	67.68	-0.00	0.0606	10.51	462.4	397.42	0.0657	527.1	9.487	19.93	11.35	1.64
	60.25	34.65	67.68	0.00	0.0606	10.52	462.7	397.65	0.0662	533.9	9.610	20.19	11.55	1.64
	61.26	34.62	67.70	0.00	0.0606	10.51	462.4	397.23	0.0662	533.9	9.610	20.18	11.55	1.64
	62.26	34.62	67.72	0.00	0.0607	10.51	462.3	397.02	0.0676	541.7	9.751	20.47	11.77	1.64
	63.26	34.60	67.68	0.00	0.0607	10.51	462.4	397.30	0.0672	544.7	9.805	20.59	11.85	1.64
	64.26	34.60	67.68	0.00	0.0607	10.51	462.5	397.40	0.0672	544.8	9.806	20.60	11.85	1.64
	65.25	34.56	67.70	0.00	0.0607	10.52	462.8	397.50	0.0673	548.1	9.866	20.71	11.94	1.64
	66.25	34.59	67.65	0.00	0.0606	10.51	462.2	397.30	0.0673	549.6	9.893	20.79	11.98	1.64
	67.25	34.60	67.72	0.00	0.0607	10.51	462.3	397.00	0.0684	561.6	10.108	21.22	12.31	1.64
	68.27	34.56	67.67	0.00	0.0606	10.50	462.0	396.91	0.0671	543.1	9.776	20.53	11.80	1.64
	69.25	34.53	67.67	0.00	0.0605	10.49	461.4	396.37	0.0668	540.1	9.722	20.42	11.72	1.64
	70.28	34.56	67.62	-0.00	0.0606	10.50	461.9	397.11	0.0666	540.0	9.720	20.43	11.72	1.64
	71.26	34.53	67.68	0.00	0.0606	10.50	462.0	396.88	0.0668	542.6	9.766	20.51	11.79	1.64
	72.26	34.60	67.67	0.00	0.0606	10.49	461.6	396.66	0.0668	539.4	9.710	20.40	11.70	1.64
	73.24	34.56	67.67	0.00	0.0606	10.49	461.7	396.67	0.0670	542.0	9.757	20.49	11.77	1.64
	74.29	34.56	67.68	0.00	0.0605	10.49	461.4	396.43	0.0661	535.2	9.633	20.23	11.58	1.64
	75.27	34.51	67.67	-0.00	0.0605	10.49	461.6	396.56	0.0662	535.4	9.637	20.24	11.58	1.64
	76.27	34.50	67.70	0.00	0.0606	10.49	461.8	396.55	0.0654	526.3	9.473	19.89	11.32	1.64
	77.25	34.56	67.65	0.00	0.0606	10.50	461.8	396.91	0.0657	522.5	9.404	19.76	11.22	1.64
	78.28	34.59	67.67	-0.00	0.0606	10.50	461.9	396.91	0.0657	529.7	9.534	20.03	11.43	1.64
	79.26	34.53	67.65	0.00	0.0605	10.49	461.4	396.50	0.0653	523.3	9.420	19.79	11.24	1.64
	80.25	34.59	67.67	0.00	0.0606	10.49	461.8	396.77	0.0658	528.4	9.511	19.98	11.39	1.64
	81.25	34.53	67.67	0.00	0.0605	10.45	460.0	395.16	0.0662	529.1	9.525	20.00	11.41	1.64
	82.26	34.56	67.70	0.00	0.0605	10.49	461.4	396.30	0.0667	541.1	9.739	20.45	11.75	1.64
	83.27	34.56	67.67	0.00	0.0605	10.47	460.8	395.92	0.0664	534.5	9.620	20.20	11.56	1.64
	84.27	34.56	67.67	-0.00	0.0605	10.47	460.8	395.94	0.0679	551.9	9.935	20.87	12.05	1.64
	85.25	34.49	67.67	0.00	0.0605	10.47	460.9	395.87	0.0674	545.6	9.820	20.62	11.87	1.64
	86.33	34.47	67.68	0.00	0.0605	10.48	461.0	395.89	0.0675	552.2	9.940	20.87	12.05	1.64
	87.27	34.49	67.68	-0.00	0.0606	10.49	461.4	396.32	0.0674	548.1	9.865	20.71	11.94	1.64
	88.25	34.45	67.67	0.00	0.0605	10.47	460.9	395.85	0.0679	553.2	9.958	20.91	12.08	1.64
	89.34	34.46	67.70	-0.00	0.0605	10.48	461.0	395.79	0.0687	557.8	10.041	21.07	12.20	1.64
	90.28	34.52	67.67	-0.00	0.0605	10.48	460.9	395.97	0.0686	562.0	10.115	21.24	12.32	1.64
	91.26	34.48	67.67	0.00	0.0605	10.47	460.9	395.89	0.0674	552.2	9.940	20.87	12.05	1.64
	92.34	34.45	67.67	0.00	0.0606	10.48	461.3	396.20	0.0674	545.9	9.825	20.63	11.87	1.64
	93.26	34.44	67.67	-0.00	0.0605	10.48	461.1	395.97	0.0669	541.5	9.746	20.46	11.75	1.64
	94.33	34.40	67.68	0.00	0.0605	10.48	461.2	396.03	0.0669	545.7	9.823	20.62	11.87	1.64
	95.25	34.46	67.67	0.00	0.0605	10.48	461.1	396.03	0.0670	543.1	9.776	20.53	11.80	1.64
	96.27	34.49	67.65	0.00	0.0606	10.49	461.7	396.69	0.0668	541.3	9.744	20.47	11.75	1.64
	97.25	34.52	67.67	0.00	0.0605	10.48	461.2	396.19	0.0676	549.7	9.894	20.78	11.98	1.64
	98.25	34.48	67.67	0.00	0.0605	10.48	461.1	396.06	0.0674	547.9	9.862	20.71	11.93	1.64
	99.34	34.50	67.68	-0.00	0.0605	10.46	460.5	395.53	0.0684	556.7	10.021	21.04	12.18	1.64
	100.25	34.56	67.70	0.00	0.0604	10.47	460.5	395.48	0.0688	562.3	10.121	21.25	12.33	1.64
	101.26	34.61	67.68	-0.00	0.0605	10.47	460.6	395.74	0.0689	566.5	10.196	21.42	12.44	1.64
	102.26	34.56	67.67	-0.00	0.0605	10.47	460.5	395.65	0.0686	565.2	10.174	21.37	12.41	1.64
	103.27	34.56	67.68	-0.00	0.0604	10.46	460.2	395.34	0.0684	561.9	10.114	21.24	12.32	1.64
	104.27	34.58	67.67	-0.00	0.0604	10.46	460.2	395.40	0.0689	563.2	10.137	21.29	12.35	1.64
	105.27	34.56	67.67	0.00	0.0604	10.46	460.2	395.37	0.0694	571.7	10.290	21.61	12.58	1.64
	106.27	34.52	67.68	0.00	0.0604	10.46	460.2	395.31	0.0691	569.7	10.255	21.53	12.53	1.64
	107.25	34.49	67.68	0.00	0.0605	10.46	460.3	395.41	0.0685	561.4	10.105	21.22	12.30	1.64
	108.27	34.48	67.67	-0.00	0.0606	10.49	461.4	396.31	0.0685	558.1	10.045	21.09	12.21	1.64
	109.25	34.48	67.70	0.00	0.0605	10.47	460.7	395.57	0.0689	564.5	10.161	21.33	12.39	1.64
	110.26	34.43	67.67	-0.00	0.0603	10.43	459.1	394.24	0.0686	564.8	10.167	21.34	12.39	1.64
	111.28	34.47	67.67	0.00	0.0605	10.47	460.5	395.55	0.0698	572.4	10.302	21.63	12.60	1.64
	112.26	34.43	67.67	0.00	0.0604	10.46	460.3	395.27	0.0692	573.1	10.315	21.66	12.61	1.64
	113.26	34.46	67.67	0.00	0.0604	10.44	459.3	394.48	0.0688	565.1	10.171	21.35	12.40	1.64
	114.24	34.36	67.66	0.00	0.0604	10.46	460.2	395.21	0.0695	572.9	10.312	21.65	12.60	1.64
	115.25	34.38	67.63	0.00	0.0603	10.42	458.6	394.06	0.0701	575.6	10.361	21.76	12.68	1.64
	116.31	34.34	67.67	-0.00	0.0604	10.44	459.5	394.53	0.0695	575.1	10.352	21.73	12.66	1.64
	117.33	34.40	67.70	0.00	0.0603	10.44	459.4	394.35	0.0701	578.1	10.406	21.84	12.74	1.64
	118.27	34.35	67.70	-0.00	0.0604	10.46	460.0	394.81	0.0696	573.1	10.316	21.64	12.61	1.64
	119.26	34.38	67.67	0.00	0.0604	10.45	459.7	394.73	0.0701	581.8	10.473	21.98	12.84	1.64
	120.26	34.41	67.67	0.00	0.0605	10.46	460.3	395.26	0.0691	570.0	10.260	21.54	12.53	1.64
	121.26	34.39	67.67	0.00	0.0604	10.46	460.3	395.27	0.0688	563.7	10.147	21.30	12.36	1.64
