Jul 25 2015 at 14:05:25
Frequency: 1.00Hz.
CO2
Zero:  Value:0.95  Date:18 Mar 2005	 at 07:22:33	
Span:  Value:1.00  Date:18 Mar 2005	 at 07:25:09	
H2O
Zero:  Value:0.71  Date:18 Mar 2005	 at 07:52:31	
Span:  Value:0.99  Date:18 Mar 2005	 at 11:44:01	
	Relative Time	Temperature	Pressure	Aux Input	CO2 Absorptance	CO2 mmol/m3	CO2 mg/m3	CO2 umol/mol	H2O Absorptance	H2O mmol/m3	H2O g/m3	H2O mmol/mol	H2O(°C)	Cooler Voltage
	0.33	34.37	70.23	0.00	0.0599	10.23	450.0	372.35	0.0935	877.8	15.801	31.96	19.28	1.80
	1.31	34.39	70.23	0.00	0.0600	10.27	452.1	374.07	0.0932	877.6	15.797	31.95	19.28	1.80
	2.40	34.34	70.20	-0.00	0.0603	10.31	453.7	375.45	0.0928	875.2	15.754	31.87	19.23	1.80
	3.31	34.35	70.23	0.00	0.0604	10.35	455.3	376.69	0.0923	870.2	15.663	31.68	19.14	1.80
	4.32	34.41	70.20	0.00	0.0601	10.30	453.4	375.29	0.0923	866.6	15.599	31.56	19.08	1.80
	5.32	34.34	70.20	-0.00	0.0597	10.21	449.2	371.74	0.0923	865.4	15.576	31.51	19.05	1.80
	6.32	34.38	70.18	-0.00	0.0597	10.20	448.9	371.69	0.0922	870.0	15.661	31.70	19.14	1.80
	7.32	34.37	70.20	0.00	0.0595	10.13	445.8	368.97	0.0915	849.6	15.292	30.94	18.76	1.80
	8.31	34.41	70.23	0.00	0.0597	10.20	448.8	371.38	0.0909	849.5	15.290	30.93	18.76	1.80
	9.33	34.37	70.20	-0.00	0.0599	10.25	451.0	373.33	0.0905	840.7	15.132	30.62	18.59	1.80
	10.33	34.35	70.20	-0.00	0.0599	10.23	450.3	372.68	0.0910	844.6	15.202	30.76	18.66	1.80
	11.32	34.38	70.23	-0.00	0.0598	10.21	449.1	371.65	0.0907	843.6	15.185	30.71	18.65	1.80
	12.31	34.44	70.22	0.00	0.0602	10.29	452.8	374.73	0.0899	829.8	14.936	30.22	18.38	1.80
	13.31	34.41	70.23	0.00	0.0604	10.34	455.1	376.61	0.0888	822.0	14.795	29.93	18.23	1.80
	14.32	34.40	70.20	0.00	0.0612	10.49	461.4	381.93	0.0861	787.4	14.172	28.68	17.55	1.80
	15.32	34.44	70.23	0.00	0.0614	10.60	466.3	385.89	0.0862	773.8	13.928	28.18	17.27	1.80
	16.33	34.38	70.23	-0.00	0.0608	10.47	460.7	381.21	0.0872	799.7	14.395	29.12	17.80	1.80
	17.33	34.44	70.23	-0.00	0.0605	10.37	456.4	377.72	0.0854	765.7	13.783	27.88	17.11	1.80
	18.33	34.42	70.23	0.00	0.0609	10.46	460.1	380.77	0.0856	772.9	13.912	28.14	17.26	1.80
	19.34	34.43	70.23	-0.00	0.0606	10.40	457.6	378.69	0.0840	751.4	13.525	27.36	16.81	1.81
	20.33	34.42	70.20	-0.00	0.0608	10.42	458.5	379.58	0.0825	733.6	13.205	26.72	16.43	1.80
	21.32	34.46	70.23	0.00	0.0609	10.46	460.2	380.91	0.0819	718.5	12.933	26.16	16.11	1.80
	22.32	34.43	70.20	-0.00	0.0612	10.51	462.6	382.98	0.0802	698.5	12.572	25.44	15.67	1.81
	23.40	34.43	70.23	-0.00	0.0612	10.49	461.5	381.92	0.0792	692.4	12.463	25.21	15.53	1.80
	24.32	34.43	70.20	-0.00	0.0611	10.52	462.7	383.05	0.0794	686.6	12.359	25.01	15.40	1.80
	25.32	34.43	70.20	0.00	0.0612	10.52	462.8	383.17	0.0795	687.6	12.376	25.05	15.42	1.81
	26.32	34.45	70.20	-0.00	0.0611	10.50	462.0	382.47	0.0803	703.1	12.656	25.61	15.77	1.81
	27.32	34.46	70.21	0.00	0.0613	10.54	464.0	384.13	0.0805	696.8	12.543	25.38	15.63	1.80
	28.30	34.46	70.23	0.00	0.0610	10.48	461.2	381.70	0.0806	704.0	12.673	25.64	15.79	1.81
	29.31	34.49	70.23	0.00	0.0611	10.51	462.4	382.75	0.0802	702.0	12.636	25.57	15.75	1.81
	30.31	34.45	70.20	0.00	0.0610	10.48	461.2	381.83	0.0794	688.2	12.388	25.07	15.44	1.81
	31.32	34.45	70.23	0.00	0.0612	10.52	462.7	382.96	0.0790	685.7	12.343	24.97	15.38	1.81
	32.34	34.46	70.23	-0.00	0.0611	10.50	462.0	382.42	0.0787	674.4	12.139	24.56	15.12	1.81
	33.32	34.41	70.20	-0.00	0.0613	10.54	463.6	383.74	0.0788	677.9	12.202	24.69	15.20	1.81
	34.34	34.40	70.23	-0.00	0.0610	10.46	460.4	380.99	0.0795	684.7	12.324	24.93	15.35	1.81
	35.32	34.45	70.20	-0.00	0.0612	10.50	462.1	382.62	0.0791	685.4	12.337	24.97	15.37	1.81
	36.33	34.43	70.23	-0.00	0.0610	10.48	461.0	381.56	0.0791	684.1	12.314	24.91	15.34	1.81
	37.39	34.46	70.20	0.00	0.0610	10.47	460.7	381.40	0.0790	683.5	12.302	24.90	15.33	1.81
	38.31	34.46	70.20	0.00	0.0613	10.52	463.0	383.34	0.0781	671.0	12.079	24.45	15.04	1.81
	39.31	34.48	70.20	0.00	0.0612	10.52	463.0	383.40	0.0786	675.7	12.163	24.62	15.15	1.81
	40.31	34.47	70.23	0.00	0.0612	10.53	463.3	383.47	0.0788	679.0	12.222	24.73	15.23	1.81
	41.32	34.49	70.20	0.00	0.0614	10.54	463.9	384.11	0.0791	681.6	12.269	24.83	15.29	1.81
	42.32	34.52	70.18	-0.00	0.0614	10.57	464.9	385.18	0.0786	676.8	12.183	24.67	15.18	1.81
	43.38	34.51	70.18	0.00	0.0613	10.53	463.3	383.78	0.0783	673.1	12.116	24.53	15.09	1.81
	44.32	34.52	70.20	-0.00	0.0613	10.54	463.6	383.94	0.0785	679.0	12.222	24.74	15.23	1.81
	45.32	34.45	70.23	-0.00	0.0615	10.56	464.5	384.41	0.0775	660.7	11.893	24.06	14.80	1.81
	46.30	34.47	70.26	0.00	0.0617	10.63	467.6	386.82	0.0783	668.6	12.035	24.34	14.99	1.81
	47.33	34.52	70.23	-0.00	0.0614	10.55	464.1	384.19	0.0787	675.0	12.149	24.58	15.14	1.81
	48.33	34.56	70.23	0.00	0.0612	10.52	462.7	383.13	0.0783	673.2	12.117	24.52	15.10	1.81
	49.31	34.58	70.23	0.00	0.0615	10.55	464.3	384.46	0.0789	676.0	12.169	24.63	15.16	1.81
	50.34	34.53	70.23	0.00	0.0615	10.59	465.8	385.64	0.0785	672.8	12.110	24.51	15.09	1.81
	51.31	34.56	70.20	0.00	0.0614	10.57	465.0	385.15	0.0785	674.7	12.145	24.59	15.13	1.81
	52.32	34.53	70.20	0.00	0.0616	10.61	466.6	386.44	0.0783	670.1	12.063	24.42	15.03	1.81
	53.32	34.59	70.20	-0.00	0.0613	10.55	464.3	384.60	0.0781	670.8	12.074	24.45	15.04	1.81
	54.32	34.59	70.23	0.00	0.0614	10.56	464.6	384.72	0.0786	674.3	12.137	24.57	15.13	1.82
	55.32	34.57	70.22	-0.00	0.0614	10.57	465.1	385.07	0.0785	675.8	12.164	24.62	15.16	1.81
	56.32	34.56	70.20	0.00	0.0614	10.55	464.2	384.43	0.0784	671.2	12.081	24.46	15.05	1.81
	57.33	34.61	70.18	-0.00	0.0616	10.60	466.3	386.40	0.0786	676.3	12.173	24.66	15.17	1.81
	58.31	34.66	70.25	0.00	0.0616	10.61	466.9	386.58	0.0788	679.6	12.233	24.76	15.25	1.81
	59.33	34.61	70.20	-0.00	0.0618	10.63	467.6	387.36	0.0788	675.2	12.154	24.61	15.15	1.81
	60.39	34.67	70.23	-0.00	0.0620	10.68	469.8	389.08	0.0792	679.6	12.232	24.77	15.25	1.82
	61.31	34.58	70.18	0.00	0.0618	10.68	469.7	389.21	0.0787	681.2	12.262	24.83	15.28	1.82
	62.31	34.59	70.23	0.00	0.0618	10.65	468.5	387.90	0.0789	681.8	12.272	24.84	15.30	1.82
	63.32	34.63	70.23	-0.00	0.0618	10.65	468.7	388.14	0.0789	680.8	12.255	24.81	15.28	1.82
	64.38	34.69	70.23	0.00	0.0617	10.62	467.5	387.20	0.0785	673.7	12.127	24.55	15.12	1.82
	65.32	34.68	70.20	0.00	0.0618	10.65	468.6	388.30	0.0788	678.4	12.211	24.73	15.22	1.82
	66.33	34.74	70.23	-0.00	0.0618	10.66	468.8	388.39	0.0787	678.9	12.220	24.75	15.24	1.82
	67.33	34.69	70.23	0.00	0.0618	10.65	468.6	388.10	0.0788	679.0	12.223	24.75	15.24	1.82
	68.31	34.63	70.20	0.00	0.0620	10.69	470.5	389.81	0.0794	685.0	12.329	24.97	15.37	1.82
	69.33	34.68	70.23	0.00	0.0617	10.64	468.2	387.77	0.0788	679.7	12.235	24.77	15.25	1.82
	70.33	34.65	70.20	0.00	0.0608	10.68	469.8	389.21	0.0797	683.5	12.303	24.92	15.34	1.82
	71.31	34.68	70.23	0.00	0.0640	10.68	470.1	389.32	0.0787	700.1	12.602	25.52	15.72	1.82
	72.32	34.69	70.20	0.00	0.0619	10.68	469.7	389.20	0.0791	685.1	12.332	24.98	15.38	1.82
	73.32	34.66	70.20	-0.00	0.0620	10.68	470.1	389.47	0.0789	680.6	12.251	24.81	15.27	1.82
	74.32	34.67	70.23	0.00	0.0621	10.75	473.1	391.85	0.0795	698.5	12.573	25.45	15.68	1.82
	75.33	34.64	70.23	-0.00	0.0620	10.69	470.3	389.52	0.0788	678.5	12.213	24.72	15.22	1.82
	76.30	34.67	70.23	0.00	0.0620	10.70	470.6	389.79	0.0789	682.3	12.282	24.87	15.31	1.82
	77.33	34.63	70.20	-0.00	0.0620	10.68	470.1	389.41	0.0795	684.6	12.323	24.95	15.36	1.83
	78.31	34.60	70.20	-0.00	0.0622	10.72	471.5	390.56	0.0796	687.2	12.370	25.05	15.42	1.82
	79.40	34.60	70.23	0.00	0.0619	10.66	469.2	388.51	0.0789	680.0	12.240	24.77	15.26	1.82
	80.31	34.59	70.23	0.00	0.0622	10.74	472.8	391.46	0.0772	658.4	11.852	23.99	14.76	1.82
	81.32	34.56	70.23	0.00	0.0624	10.80	475.3	393.49	0.0787	679.4	12.229	24.75	15.24	1.82
	82.32	34.56	70.20	0.00	0.0626	10.79	474.6	393.07	0.0794	679.2	12.226	24.75	15.24	1.83
	83.32	34.50	70.23	-0.00	0.0626	10.81	475.6	393.69	0.0793	683.5	12.303	24.89	15.33	1.83
	84.30	34.56	70.23	0.00	0.0622	10.73	472.2	390.98	0.0783	672.6	12.106	24.50	15.08	1.82
	85.32	34.58	70.20	0.00	0.0624	10.76	473.5	392.21	0.0789	678.4	12.212	24.73	15.22	1.82
	86.31	34.61	70.20	-0.00	0.0622	10.75	472.8	391.63	0.0785	675.0	12.150	24.60	15.14	1.83
	87.33	34.49	70.23	-0.00	0.0622	10.72	471.9	390.62	0.0783	671.8	12.092	24.47	15.06	1.82
	88.33	34.53	70.25	-0.00	0.0623	10.78	474.5	392.67	0.0782	674.4	12.139	24.56	15.12	1.83
	89.33	34.56	70.25	-0.00	0.0625	10.79	474.6	392.80	0.0784	671.9	12.094	24.47	15.07	1.83
	90.31	34.51	70.23	0.00	0.0622	10.76	473.3	391.80	0.0779	669.4	12.049	24.38	15.01	1.83
	91.32	34.55	70.23	0.00	0.0622	10.74	472.4	391.13	0.0782	671.7	12.090	24.47	15.06	1.83
	92.31	34.56	70.23	0.00	0.0624	10.78	474.4	392.82	0.0787	676.2	12.171	24.63	15.17	1.83
	93.38	34.53	70.23	0.00	0.0625	10.79	474.9	393.16	0.0789	678.4	12.212	24.71	15.22	1.83
	94.30	34.54	70.20	0.00	0.0625	10.78	474.1	392.64	0.0795	685.1	12.332	24.97	15.37	1.83
	95.30	34.61	70.20	0.00	0.0623	10.83	476.6	394.80	0.0797	699.8	12.597	25.51	15.70	1.83
	96.31	34.67	70.20	0.00	0.0623	10.74	472.5	391.46	0.0797	688.7	12.397	25.11	15.46	1.83
	97.30	34.71	70.25	0.00	0.0623	10.77	474.0	392.47	0.0798	693.0	12.475	25.25	15.56	1.83
	98.33	34.80	70.23	-0.00	0.0623	10.78	474.2	392.95	0.0799	695.9	12.527	25.37	15.63	1.83
	99.31	34.87	70.23	0.00	0.0625	10.81	475.5	394.07	0.0804	700.9	12.616	25.56	15.74	1.83
	100.31	34.86	70.25	0.00	0.0621	10.74	472.6	391.54	0.0793	687.6	12.376	25.06	15.44	1.83
	101.31	34.92	70.20	-0.00	0.0622	10.75	473.1	392.27	0.0796	693.9	12.489	25.31	15.59	1.83
	102.32	35.03	70.23	0.00	0.0621	10.72	471.5	390.99	0.0797	689.4	12.410	25.15	15.49	1.83
	103.30	35.12	70.23	0.00	0.0621	10.72	471.5	391.06	0.0800	693.0	12.475	25.29	15.58	1.83
	104.32	35.18	70.18	0.00	0.0621	10.71	471.0	391.03	0.0800	690.0	12.420	25.20	15.51	1.83
	105.32	35.28	70.20	-0.00	0.0626	10.83	476.3	395.42	0.0806	701.6	12.628	25.63	15.78	1.83
	106.31	35.26	70.20	0.00	0.0627	10.84	477.0	395.95	0.0807	702.3	12.642	25.65	15.79	1.83
	107.30	35.27	70.18	0.00	0.0627	10.84	477.2	396.25	0.0808	706.1	12.710	25.80	15.88	1.84
	108.31	35.31	70.23	0.00	0.0632	10.98	482.9	400.82	0.0791	684.4	12.320	24.99	15.39	1.83
	109.31	35.32	70.20	-0.00	0.0632	10.95	481.8	400.00	0.0794	684.4	12.320	25.00	15.39	1.83
	110.31	35.25	70.23	0.00	0.0631	10.94	481.3	399.38	0.0793	684.8	12.327	25.00	15.40	1.84
	111.32	35.18	70.23	-0.00	0.0630	10.91	480.1	398.32	0.0789	681.2	12.261	24.86	15.31	1.84
	112.32	35.09	70.23	-0.00	0.0632	10.95	481.7	399.48	0.0794	684.3	12.318	24.97	15.38	1.84
	113.33	35.02	70.23	-0.00	0.0635	11.02	484.8	401.96	0.0800	692.6	12.468	25.27	15.57	1.84
	114.32	34.97	70.23	-0.00	0.0639	11.12	489.5	405.79	0.0813	715.3	12.875	26.09	16.07	1.84
	115.32	34.96	70.20	0.00	0.0631	10.95	482.0	399.69	0.0795	689.3	12.407	25.15	15.49	1.84
	116.31	34.91	70.28	0.00	0.0635	10.99	483.6	400.55	0.0807	697.3	12.552	25.41	15.66	1.84
	117.31	34.94	70.20	0.00	0.0628	10.89	479.3	397.50	0.0812	709.6	12.772	25.89	15.94	1.84
	118.31	35.01	70.23	0.00	0.0627	10.86	478.0	396.32	0.0810	709.7	12.775	25.89	15.94	1.84
	119.31	35.02	70.20	0.00	0.0629	10.91	480.0	398.15	0.0816	717.4	12.914	26.18	16.11	1.84
	120.31	35.01	70.23	0.00	0.0636	11.05	486.2	403.12	0.0817	717.9	12.921	26.19	16.12	1.84
	121.32	35.06	70.20	0.00	0.0634	11.00	484.0	401.54	0.0815	713.8	12.848	26.05	16.04	1.84
	122.38	35.08	70.20	0.00	0.0634	11.00	483.9	401.43	0.0813	711.9	12.814	25.99	16.00	1.84
	123.32	35.06	70.20	0.00	0.0631	10.97	482.6	400.38	0.0804	703.6	12.664	25.68	15.81	1.84
	124.32	35.09	70.20	-0.00	0.0632	10.99	483.4	401.09	0.0808	709.3	12.767	25.89	15.94	1.84
	125.33	35.12	70.26	-0.00	0.0635	11.00	484.2	401.45	0.0815	714.0	12.852	26.05	16.05	1.84
	126.30	35.16	70.20	0.00	0.0630	10.93	480.7	398.89	0.0806	702.3	12.642	25.64	15.79	1.84
	127.33	35.18	70.20	-0.00	0.0630	10.91	480.0	398.34	0.0819	720.8	12.975	26.32	16.20	1.84
	128.31	35.26	70.18	-0.00	0.0633	11.01	484.4	402.28	0.0805	704.4	12.679	25.74	15.84	1.84
	129.34	35.28	70.23	-0.00	0.0629	10.86	477.7	396.44	0.0815	712.5	12.826	26.02	16.02	1.84
	130.31	35.29	70.23	0.00	0.0630	10.94	481.4	399.55	0.0823	721.7	12.990	26.35	16.22	1.84
	131.34	35.35	70.20	-0.00	0.0629	10.90	479.4	398.07	0.0830	732.7	13.189	26.77	16.46	1.84
