Jul 25 2015 at 14:16:47
Frequency: 1.00Hz.
CO2
Zero:  Value:0.95  Date:18 Mar 2005	 at 07:22:33	
Span:  Value:1.00  Date:18 Mar 2005	 at 07:25:09	
H2O
Zero:  Value:0.71  Date:18 Mar 2005	 at 07:52:31	
Span:  Value:0.99  Date:18 Mar 2005	 at 11:44:01	
	Relative Time	Temperature	Pressure	Aux Input	CO2 Absorptance	CO2 mmol/m3	CO2 mg/m3	CO2 umol/mol	H2O Absorptance	H2O mmol/m3	H2O g/m3	H2O mmol/mol	H2O(°C)	Cooler Voltage
	0.62	35.87	70.20	-0.00	0.0629	10.89	479.0	398.42	0.0541	396.0	7.128	14.49	7.17	1.79
	1.61	35.86	70.20	0.00	0.0627	10.88	478.7	398.13	0.0545	399.8	7.197	14.63	7.31	1.79
	2.62	35.91	70.15	0.00	0.0629	10.90	479.7	399.37	0.0547	400.8	7.215	14.68	7.35	1.79
	3.63	35.92	70.20	0.00	0.0629	10.90	479.5	398.87	0.0552	406.2	7.312	14.87	7.54	1.79
	4.65	35.93	70.20	-0.00	0.0628	10.89	479.0	398.52	0.0552	406.0	7.307	14.86	7.53	1.79
	5.62	35.94	70.20	0.00	0.0625	10.83	476.5	396.45	0.0549	402.2	7.240	14.72	7.40	1.79
	6.63	35.90	70.20	0.00	0.0624	10.79	474.9	395.05	0.0554	406.0	7.308	14.86	7.53	1.79
	7.61	35.98	70.18	0.00	0.0623	10.78	474.3	394.75	0.0551	405.2	7.294	14.84	7.51	1.79
	8.64	35.91	70.23	-0.00	0.0624	10.78	474.5	394.55	0.0551	405.3	7.295	14.83	7.51	1.79
	9.62	35.91	70.20	-0.00	0.0622	10.76	473.5	393.87	0.0552	405.9	7.307	14.86	7.53	1.79
	10.70	35.91	70.20	0.00	0.0622	10.75	473.0	393.45	0.0554	407.0	7.326	14.90	7.57	1.79
	11.62	35.93	70.18	-0.00	0.0621	10.73	472.2	392.94	0.0555	407.2	7.329	14.91	7.58	1.78
	12.70	35.88	70.22	-0.00	0.0621	10.73	471.9	392.43	0.0558	411.0	7.398	15.04	7.71	1.79
	13.63	35.92	70.20	-0.00	0.0620	10.70	471.0	391.81	0.0561	413.5	7.443	15.14	7.80	1.79
	14.62	35.88	70.18	-0.00	0.0620	10.70	471.0	391.90	0.0573	423.8	7.628	15.52	8.16	1.79
	15.62	35.92	70.18	0.00	0.0621	10.72	471.6	392.45	0.0583	435.7	7.842	15.95	8.57	1.78
	16.61	35.88	70.20	0.00	0.0620	10.70	471.0	391.75	0.0581	438.3	7.890	16.04	8.66	1.78
	17.61	35.87	70.17	0.00	0.0620	10.70	470.8	391.79	0.0586	442.7	7.969	16.21	8.81	1.78
	18.63	35.86	70.20	-0.00	0.0619	10.68	470.1	391.01	0.0607	464.1	8.354	16.99	9.51	1.78
	19.62	35.92	70.25	0.00	0.0619	10.67	469.4	390.18	0.0591	446.1	8.030	16.32	8.92	1.79
	20.62	35.88	70.23	0.00	0.0618	10.66	469.2	390.16	0.0598	453.6	8.165	16.60	9.17	1.79
	21.62	35.94	70.23	0.00	0.0617	10.64	468.1	389.31	0.0607	461.2	8.302	16.88	9.42	1.78
	22.64	35.96	70.20	-0.00	0.0616	10.61	467.0	388.53	0.0618	472.2	8.500	17.29	9.77	1.78
	23.65	35.87	70.25	-0.00	0.0616	10.63	467.7	388.77	0.0635	490.4	8.828	17.94	10.33	1.78
	24.63	35.94	70.15	-0.00	0.0614	10.56	464.8	386.97	0.0647	504.3	9.077	18.47	10.75	1.78
	25.61	35.96	70.20	0.00	0.0616	10.61	467.0	388.53	0.0639	499.1	8.983	18.27	10.60	1.78
	26.63	35.95	70.18	-0.00	0.0617	10.63	467.7	389.25	0.0634	494.9	8.908	18.12	10.47	1.78
	27.61	35.96	70.20	0.00	0.0615	10.59	466.0	387.74	0.0629	487.4	8.773	17.84	10.24	1.78
	28.61	35.93	70.20	0.00	0.0615	10.58	465.7	387.39	0.0634	492.2	8.860	18.02	10.39	1.78
	29.62	35.91	70.20	0.00	0.0614	10.57	464.9	386.75	0.0648	504.5	9.081	18.47	10.76	1.78
	30.62	35.92	70.20	-0.00	0.0615	10.59	465.9	387.55	0.0653	511.6	9.209	18.73	10.97	1.78
	31.62	35.89	70.20	0.00	0.0615	10.59	465.9	387.58	0.0655	518.5	9.333	18.98	11.17	1.78
	32.62	35.91	70.20	0.00	0.0615	10.59	466.0	387.69	0.0651	513.6	9.245	18.80	11.03	1.78
	33.63	35.91	70.22	0.00	0.0614	10.57	465.2	386.84	0.0648	509.1	9.164	18.63	10.89	1.78
	34.62	35.94	70.20	0.00	0.0614	10.56	464.8	386.72	0.0659	520.2	9.364	19.04	11.22	1.78
	35.65	35.95	70.23	-0.00	0.0614	10.56	464.8	386.58	0.0654	515.5	9.279	18.86	11.08	1.78
	36.61	35.94	70.20	0.00	0.0614	10.55	464.2	386.20	0.0652	512.2	9.220	18.75	10.99	1.78
	37.64	35.85	70.18	-0.00	0.0613	10.55	464.2	386.24	0.0656	515.4	9.278	18.87	11.08	1.78
	38.61	35.89	70.20	0.00	0.0613	10.54	463.7	385.68	0.0660	522.0	9.396	19.10	11.27	1.78
	39.62	35.91	70.20	0.00	0.0612	10.53	463.4	385.49	0.0662	524.0	9.433	19.18	11.33	1.78
	40.61	35.93	70.20	0.00	0.0612	10.52	463.0	385.16	0.0665	527.9	9.501	19.32	11.44	1.78
	41.70	36.00	70.20	-0.00	0.0612	10.52	462.8	385.10	0.0664	526.5	9.476	19.28	11.40	1.78
	42.63	35.97	70.20	-0.00	0.0612	10.52	462.9	385.16	0.0666	528.6	9.515	19.35	11.46	1.78
	43.62	36.05	70.20	0.00	0.0613	10.54	463.7	385.93	0.0670	535.3	9.636	19.60	11.66	1.78
	44.63	36.07	70.20	-0.00	0.0611	10.50	462.2	384.66	0.0673	536.6	9.658	19.65	11.69	1.78
	45.61	36.05	70.18	-0.00	0.0611	10.49	461.8	384.43	0.0680	544.1	9.793	19.93	11.90	1.78
	46.61	35.99	70.18	0.00	0.0611	10.49	461.6	384.22	0.0682	547.0	9.846	20.03	11.98	1.78
	47.61	36.05	70.23	-0.00	0.0610	10.47	460.6	383.21	0.0689	554.2	9.975	20.28	12.18	1.78
	48.64	36.02	70.20	-0.00	0.0610	10.48	461.0	383.64	0.0695	563.1	10.136	20.62	12.42	1.78
	49.62	36.02	70.21	0.00	0.0611	10.48	461.0	383.56	0.0696	564.9	10.168	20.68	12.47	1.78
	50.64	35.98	70.20	0.00	0.0612	10.51	462.6	384.88	0.0698	566.7	10.201	20.75	12.52	1.78
	51.62	35.95	70.18	0.00	0.0612	10.52	462.9	385.23	0.0700	570.3	10.265	20.88	12.61	1.78
	52.63	35.96	70.20	-0.00	0.0611	10.50	461.9	384.30	0.0695	564.1	10.154	20.65	12.45	1.78
	53.60	35.96	70.18	0.00	0.0611	10.50	461.9	384.42	0.0695	562.4	10.123	20.60	12.40	1.78
	54.62	35.94	70.25	0.00	0.0609	10.47	460.7	383.02	0.0699	568.1	10.225	20.78	12.55	1.78
	55.60	35.93	70.20	0.00	0.0609	10.46	460.1	382.80	0.0713	580.1	10.441	21.23	12.87	1.78
	56.63	36.00	70.20	0.00	0.0610	10.47	460.7	383.35	0.0726	603.4	10.862	22.09	13.48	1.78
	57.63	35.97	70.20	-0.00	0.0609	10.45	459.9	382.68	0.0728	598.8	10.778	21.92	13.36	1.78
	58.64	35.92	70.15	-0.00	0.0610	10.47	460.6	383.40	0.0731	604.3	10.877	22.13	13.50	1.78
	59.62	35.96	70.20	0.00	0.0611	10.50	461.9	384.31	0.0741	618.9	11.141	22.66	13.87	1.78
	60.64	35.93	70.18	0.00	0.0609	10.46	460.4	383.14	0.0731	607.7	10.939	22.25	13.59	1.78
	61.60	36.01	70.20	0.00	0.0610	10.48	461.2	383.73	0.0730	606.5	10.917	22.21	13.56	1.78
	62.62	35.95	70.20	0.00	0.0610	10.48	461.3	383.78	0.0731	606.8	10.923	22.22	13.56	1.78
	63.60	35.95	70.20	0.00	0.0609	10.47	460.6	383.22	0.0730	605.1	10.891	22.15	13.52	1.78
	64.71	35.96	70.23	-0.00	0.0610	10.46	460.2	382.79	0.0735	611.8	11.013	22.39	13.69	1.78
	65.61	35.95	70.20	0.00	0.0610	10.48	461.2	383.75	0.0737	615.4	11.077	22.53	13.78	1.78
	66.64	36.00	70.18	-0.00	0.0609	10.46	460.1	383.03	0.0738	615.5	11.079	22.54	13.79	1.78
	67.61	36.00	70.18	0.00	0.0608	10.43	459.0	382.11	0.0739	614.9	11.069	22.52	13.77	1.78
	68.62	35.91	70.23	0.00	0.0608	10.43	459.1	381.77	0.0750	630.1	11.342	23.06	14.14	1.78
	69.61	36.03	70.20	0.00	0.0608	10.43	458.7	381.75	0.0750	630.1	11.342	23.07	14.15	1.78
	70.62	36.00	70.20	0.00	0.0608	10.42	458.6	381.60	0.0749	627.8	11.301	22.99	14.09	1.78
	71.60	35.97	70.20	0.00	0.0608	10.43	459.0	381.92	0.0747	628.5	11.312	23.01	14.10	1.78
	72.62	35.97	70.18	-0.00	0.0608	10.44	459.5	382.45	0.0741	621.5	11.187	22.76	13.93	1.78
	73.63	35.94	70.22	-0.00	0.0608	10.43	459.1	381.82	0.0741	620.4	11.167	22.70	13.90	1.78
	74.61	36.00	70.23	0.00	0.0608	10.43	459.0	381.75	0.0744	623.5	11.223	22.82	13.98	1.78
	75.63	36.04	70.20	-0.00	0.0608	10.42	458.5	381.57	0.0746	625.3	11.256	22.90	14.03	1.78
	76.61	36.06	70.20	0.00	0.0607	10.41	458.2	381.34	0.0745	622.5	11.204	22.79	13.96	1.78
	77.63	36.02	70.20	0.00	0.0606	10.39	457.3	380.57	0.0747	626.7	11.280	22.95	14.06	1.78
	78.62	36.03	70.20	0.00	0.0607	10.40	457.4	380.66	0.0749	628.7	11.316	23.02	14.11	1.78
	79.64	36.00	70.18	-0.00	0.0607	10.42	458.3	381.48	0.0751	632.3	11.382	23.16	14.20	1.78
	80.62	35.96	70.20	-0.00	0.0607	10.40	457.6	380.70	0.0745	626.3	11.273	22.93	14.05	1.78
	81.62	36.02	70.18	0.00	0.0608	10.42	458.5	381.66	0.0749	628.2	11.307	23.01	14.10	1.78
	82.63	36.07	70.20	-0.00	0.0607	10.40	457.7	380.97	0.0752	631.7	11.371	23.14	14.19	1.78
	83.62	36.04	70.20	0.00	0.0606	10.38	456.6	379.99	0.0751	631.9	11.375	23.14	14.19	1.79
	84.63	36.05	70.20	-0.00	0.0606	10.38	456.8	380.15	0.0752	634.4	11.419	23.23	14.25	1.79
	85.63	36.00	70.18	-0.00	0.0606	10.38	456.6	380.07	0.0756	637.2	11.469	23.34	14.32	1.78
	86.61	36.02	70.15	0.00	0.0605	10.37	456.1	379.78	0.0753	633.2	11.398	23.20	14.22	1.78
	87.61	36.05	70.20	0.00	0.0606	10.38	456.9	380.27	0.0756	636.4	11.455	23.30	14.30	1.78
	88.61	36.02	70.18	0.00	0.0605	10.37	456.3	379.81	0.0754	634.4	11.420	23.24	14.25	1.78
	89.61	36.06	70.23	0.00	0.0606	10.38	456.7	379.97	0.0754	636.9	11.464	23.32	14.31	1.79
	90.62	36.04	70.20	0.00	0.0606	10.38	456.9	380.22	0.0756	638.8	11.498	23.39	14.36	1.78
	91.64	36.06	70.20	0.00	0.0606	10.38	456.9	380.26	0.0770	649.9	11.697	23.80	14.63	1.78
	92.62	36.09	70.23	0.00	0.0604	10.34	455.1	378.66	0.0768	652.9	11.752	23.90	14.70	1.78
	93.63	36.09	70.18	0.00	0.0606	10.39	457.1	380.59	0.0774	660.0	11.879	24.18	14.87	1.78
	94.61	36.04	70.20	0.00	0.0607	10.40	457.5	380.75	0.0775	663.2	11.937	24.28	14.94	1.78
	95.63	36.07	70.20	0.00	0.0606	10.39	457.1	380.46	0.0771	659.4	11.870	24.15	14.85	1.79
	96.63	36.05	70.20	-0.00	0.0606	10.40	457.4	380.70	0.0767	654.9	11.789	23.98	14.75	1.78
	97.62	36.07	70.15	0.00	0.0606	10.39	457.0	380.60	0.0766	650.9	11.717	23.85	14.65	1.78
	98.61	36.07	70.20	0.00	0.0604	10.37	456.1	379.64	0.0771	656.0	11.808	24.02	14.77	1.78
	99.62	36.01	70.18	-0.00	0.0605	10.35	455.4	379.11	0.0768	654.2	11.776	23.96	14.73	1.78
	100.62	36.05	70.20	0.00	0.0605	10.37	456.1	379.57	0.0767	652.0	11.737	23.88	14.68	1.78
	101.62	36.05	70.18	-0.00	0.0606	10.38	456.7	380.21	0.0767	652.3	11.742	23.90	14.68	1.78
	102.63	36.01	70.15	-0.00	0.0606	10.38	456.9	380.51	0.0769	654.3	11.778	23.98	14.73	1.78
	103.62	36.12	70.18	-0.00	0.0606	10.38	456.9	380.49	0.0770	654.7	11.784	23.99	14.74	1.78
	104.63	36.12	70.18	-0.00	0.0605	10.37	456.3	379.98	0.0770	655.4	11.797	24.01	14.76	1.78
	105.61	36.11	70.20	0.00	0.0605	10.38	456.6	380.04	0.0771	657.3	11.831	24.07	14.80	1.78
	106.63	36.09	70.20	-0.00	0.0606	10.38	456.6	380.05	0.0771	656.5	11.816	24.04	14.78	1.78
	107.61	36.06	70.20	0.00	0.0604	10.37	456.3	379.80	0.0775	662.6	11.926	24.26	14.93	1.78
	108.62	36.02	70.18	0.00	0.0605	10.36	455.7	379.35	0.0779	667.0	12.006	24.43	15.03	1.78
	109.70	36.02	70.20	0.00	0.0604	10.35	455.3	378.88	0.0778	666.6	11.998	24.41	15.02	1.78
	110.62	36.02	70.20	0.00	0.0603	10.33	454.3	378.05	0.0780	668.4	12.032	24.47	15.06	1.78
	111.62	36.02	70.18	0.00	0.0604	10.35	455.4	379.11	0.0781	670.0	12.059	24.54	15.10	1.78
	112.62	36.05	70.17	0.00	0.0604	10.33	454.7	378.55	0.0781	669.6	12.053	24.53	15.09	1.78
	113.63	36.04	70.20	-0.00	0.0604	10.35	455.3	378.88	0.0781	668.7	12.036	24.48	15.07	1.78
	114.61	36.05	70.20	0.00	0.0604	10.32	454.3	378.07	0.0789	680.2	12.243	24.91	15.33	1.78
	115.61	36.02	70.20	0.00	0.0602	10.31	453.7	377.59	0.0787	679.3	12.227	24.87	15.31	1.78
	116.63	36.04	70.20	-0.00	0.0603	10.32	454.2	377.99	0.0790	681.3	12.264	24.95	15.36	1.78
	117.62	36.05	70.18	-0.00	0.0602	10.29	452.8	376.95	0.0787	676.6	12.179	24.79	15.25	1.78
	118.64	36.05	70.22	-0.00	0.0603	10.32	453.9	377.64	0.0788	679.1	12.224	24.86	15.31	1.78
	119.61	36.00	70.18	0.00	0.0604	10.34	454.9	378.70	0.0790	681.4	12.265	24.96	15.36	1.78
	120.62	35.91	70.20	0.00	0.0604	10.33	454.5	378.10	0.0791	682.7	12.289	24.99	15.39	1.78
	121.60	35.95	70.18	0.00	0.0603	10.32	454.1	377.92	0.0793	686.8	12.363	25.15	15.48	1.78
