Jul 25 2015 at 17:02:51
Frequency: 1.00Hz.
CO2
Zero:  Value:0.95  Date:18 Mar 2005	 at 07:22:33	
Span:  Value:1.00  Date:18 Mar 2005	 at 07:25:09	
H2O
Zero:  Value:0.71  Date:18 Mar 2005	 at 07:52:31	
Span:  Value:0.99  Date:18 Mar 2005	 at 11:44:01	
	Relative Time	Temperature	Pressure	Aux Input	CO2 Absorptance	CO2 mmol/m3	CO2 mg/m3	CO2 umol/mol	H2O Absorptance	H2O mmol/m3	H2O g/m3	H2O mmol/mol	H2O(°C)	Cooler Voltage
	0.98	34.69	67.67	0.00	0.0614	10.68	469.8	403.81	0.0570	434.4	7.820	16.43	8.47	1.64
	2.00	34.69	67.67	0.00	0.0614	10.66	469.1	403.23	0.0576	437.5	7.875	16.55	8.58	1.64
	2.98	34.66	67.67	0.00	0.0614	10.67	469.6	403.57	0.0577	436.0	7.848	16.49	8.52	1.64
	3.99	34.69	67.67	0.00	0.0612	10.65	468.7	402.91	0.0575	437.2	7.870	16.54	8.57	1.64
	4.99	34.68	67.65	-0.00	0.0614	10.68	469.8	403.98	0.0577	438.3	7.890	16.58	8.60	1.64
	5.97	34.69	67.68	0.00	0.0613	10.67	469.4	403.46	0.0578	437.7	7.879	16.55	8.58	1.64
	7.00	34.65	67.70	-0.00	0.0614	10.65	468.8	402.70	0.0575	439.0	7.902	16.59	8.62	1.64
	8.08	34.58	67.70	-0.00	0.0614	10.66	469.1	402.87	0.0572	434.5	7.821	16.42	8.47	1.64
	9.00	34.60	67.67	-0.00	0.0614	10.69	470.2	404.05	0.0576	438.0	7.884	16.56	8.59	1.63
	10.00	34.65	67.70	0.00	0.0614	10.68	469.8	403.59	0.0580	441.4	7.944	16.68	8.70	1.64
	10.98	34.61	67.68	0.00	0.0614	10.67	469.7	403.55	0.0577	435.9	7.846	16.48	8.52	1.63
	11.98	34.65	67.70	0.00	0.0614	10.66	469.1	403.02	0.0585	445.7	8.023	16.85	8.85	1.64
	12.99	34.65	67.65	-0.00	0.0613	10.66	469.0	403.25	0.0588	447.7	8.058	16.94	8.91	1.64
	13.98	34.65	67.63	0.00	0.0613	10.65	468.5	402.90	0.0592	452.4	8.143	17.12	9.07	1.63
	15.09	34.61	67.67	-0.00	0.0613	10.66	469.0	403.02	0.0594	453.7	8.166	17.15	9.11	1.63
	15.99	34.58	67.67	0.00	0.0613	10.65	468.8	402.80	0.0595	456.9	8.224	17.27	9.21	1.63
	17.00	34.53	67.65	0.00	0.0612	10.64	468.2	402.36	0.0593	448.5	8.073	16.96	8.93	1.63
	18.00	34.56	67.70	-0.00	0.0613	10.65	468.5	402.39	0.0598	459.5	8.272	17.37	9.30	1.63
	19.00	34.61	67.68	-0.00	0.0612	10.62	467.1	401.37	0.0592	454.9	8.188	17.20	9.15	1.64
	20.00	34.63	67.70	-0.00	0.0612	10.64	468.3	402.26	0.0602	465.2	8.374	17.58	9.48	1.64
	21.00	34.64	67.67	-0.00	0.0613	10.65	468.8	402.86	0.0606	470.3	8.465	17.78	9.64	1.63
	22.00	34.60	67.70	0.00	0.0611	10.60	466.5	400.67	0.0605	469.3	8.447	17.74	9.61	1.64
	22.99	34.65	67.68	-0.00	0.0612	10.64	468.0	402.16	0.0621	483.8	8.708	18.29	10.07	1.63
	23.98	34.58	67.70	0.00	0.0612	10.59	466.1	400.34	0.0620	465.6	8.381	17.60	9.49	1.64
	24.99	34.53	67.70	0.00	0.0610	10.60	466.3	400.47	0.0608	475.1	8.552	17.95	9.79	1.64
	25.99	34.49	67.68	-0.00	0.0610	10.59	466.1	400.32	0.0606	468.7	8.437	17.71	9.59	1.63
	26.99	34.48	67.70	-0.00	0.0608	10.56	464.7	398.97	0.0593	457.1	8.228	17.27	9.21	1.63
	27.99	34.51	67.70	0.00	0.0610	10.59	465.8	399.98	0.0597	460.4	8.288	17.40	9.32	1.63
	28.98	34.53	67.70	0.00	0.0612	10.61	467.0	401.05	0.0605	467.1	8.408	17.65	9.54	1.63
	29.97	34.58	67.68	0.00	0.0613	10.61	466.8	401.09	0.0611	466.6	8.399	17.64	9.52	1.64
	30.98	34.58	67.67	0.00	0.0611	10.62	467.3	401.50	0.0615	482.5	8.686	18.24	10.02	1.64
	32.00	34.62	67.67	0.00	0.0610	10.58	465.6	400.13	0.0608	472.2	8.500	17.85	9.70	1.63
	32.99	34.62	67.70	-0.00	0.0612	10.63	467.7	401.75	0.0617	483.6	8.705	18.28	10.06	1.63
	33.99	34.60	67.68	0.00	0.0612	10.64	468.1	402.18	0.0626	486.4	8.756	18.39	10.15	1.63
	34.99	34.62	67.70	0.00	0.0611	10.63	467.5	401.60	0.0626	485.6	8.741	18.35	10.12	1.64
	35.99	34.67	67.65	-0.00	0.0610	10.58	465.5	400.22	0.0621	488.9	8.800	18.49	10.22	1.64
	37.00	34.63	67.67	0.00	0.0611	10.57	465.1	399.67	0.0634	481.2	8.662	18.20	9.99	1.64
	37.99	34.65	67.70	0.00	0.0610	10.58	465.5	399.88	0.0627	495.8	8.925	18.74	10.43	1.63
	38.98	34.63	67.65	0.00	0.0610	10.59	466.1	400.66	0.0634	500.8	9.015	18.94	10.58	1.63
	39.98	34.55	67.70	0.00	0.0608	10.53	463.5	398.08	0.0615	478.6	8.616	18.09	9.90	1.63
	41.00	34.59	67.67	-0.00	0.0611	10.60	466.5	400.87	0.0646	519.3	9.347	19.63	11.13	1.64
	41.98	34.59	67.70	0.00	0.0611	10.60	466.3	400.50	0.0646	517.1	9.307	19.54	11.06	1.64
	43.07	34.62	67.70	-0.00	0.0611	10.59	466.0	400.33	0.0644	507.8	9.141	19.19	10.79	1.63
	43.98	34.66	67.67	0.00	0.0608	10.56	464.5	399.22	0.0627	495.4	8.917	18.73	10.42	1.63
	45.01	34.63	67.70	0.00	0.0610	10.58	465.5	399.84	0.0646	515.9	9.287	19.50	11.03	1.64
	46.00	34.62	67.67	-0.00	0.0610	10.59	465.9	400.34	0.0651	506.8	9.123	19.16	10.76	1.63
	47.00	34.53	67.67	0.00	0.0610	10.58	465.4	399.80	0.0640	510.3	9.185	19.29	10.86	1.64
	47.99	34.53	67.67	0.00	0.0611	10.59	466.0	400.35	0.0651	523.9	9.430	19.80	11.26	1.64
	48.98	34.59	67.67	0.00	0.0610	10.57	465.3	399.77	0.0644	513.9	9.251	19.43	10.97	1.63
	50.00	34.63	67.63	-0.00	0.0610	10.58	465.7	400.48	0.0651	520.7	9.372	19.70	11.17	1.63
	50.98	34.60	67.65	0.00	0.0610	10.52	463.0	398.01	0.0656	509.4	9.169	19.27	10.84	1.63
	51.98	34.65	67.68	0.00	0.0610	10.58	465.4	399.91	0.0655	523.9	9.430	19.81	11.26	1.63
	52.99	34.64	67.67	0.00	0.0609	10.58	465.5	400.10	0.0655	525.8	9.465	19.88	11.32	1.64
	54.05	34.61	67.67	0.00	0.0609	10.57	464.9	399.51	0.0656	528.0	9.504	19.96	11.38	1.64
	54.97	34.56	67.67	0.00	0.0609	10.57	465.0	399.52	0.0651	525.0	9.449	19.85	11.29	1.64
	55.99	34.59	67.67	0.00	0.0607	10.55	464.2	398.87	0.0654	526.5	9.477	19.91	11.33	1.63
	56.99	34.58	67.70	0.00	0.0610	10.59	465.9	400.14	0.0664	540.3	9.725	20.42	11.72	1.63
	57.97	34.56	67.70	0.00	0.0610	10.57	465.0	399.37	0.0663	529.6	9.532	20.01	11.42	1.63
	59.00	34.54	67.67	0.00	0.0610	10.58	465.4	399.88	0.0666	534.9	9.628	20.22	11.57	1.64
	60.01	34.56	67.65	-0.00	0.0609	10.58	465.4	399.96	0.0673	539.4	9.709	20.40	11.70	1.64
	61.00	34.63	67.70	-0.00	0.0608	10.55	464.2	398.73	0.0674	549.2	9.886	20.76	11.98	1.63
	61.98	34.67	67.65	0.00	0.0607	10.53	463.2	398.26	0.0673	547.5	9.855	20.71	11.93	1.63
	63.01	34.67	67.70	-0.00	0.0606	10.52	462.9	397.69	0.0681	558.8	10.059	21.13	12.24	1.63
	63.99	34.68	67.68	-0.00	0.0607	10.50	462.1	397.21	0.0683	552.6	9.947	20.90	12.07	1.63
	64.97	34.74	67.70	0.00	0.0609	10.55	464.3	398.96	0.0675	551.3	9.923	20.84	12.04	1.64
	65.97	34.80	67.67	0.00	0.0609	10.56	464.6	399.46	0.0672	543.5	9.784	20.56	11.83	1.64
	67.00	34.79	67.67	0.00	0.0607	10.53	463.5	398.49	0.0673	544.4	9.800	20.60	11.85	1.63
	68.00	34.76	67.67	-0.00	0.0607	10.51	462.3	397.45	0.0679	558.1	10.046	21.11	12.23	1.63
	68.98	34.75	67.65	0.00	0.0608	10.54	463.6	398.73	0.0690	565.8	10.184	21.41	12.43	1.63
	69.98	34.78	67.67	0.00	0.0608	10.54	463.8	398.76	0.0679	557.8	10.040	21.10	12.22	1.63
	71.00	34.79	67.70	0.00	0.0608	10.55	464.2	398.93	0.0689	566.1	10.190	21.41	12.44	1.64
	71.99	34.74	67.72	-0.00	0.0609	10.56	464.9	399.33	0.0683	559.0	10.061	21.13	12.25	1.64
	72.98	34.78	67.67	0.00	0.0609	10.55	464.3	399.20	0.0673	558.2	10.047	21.12	12.23	1.63
	73.99	34.80	67.68	0.00	0.0608	10.55	464.0	398.95	0.0687	561.8	10.112	21.25	12.33	1.63
	75.00	34.79	67.68	-0.00	0.0609	10.56	464.4	399.32	0.0688	560.4	10.087	21.20	12.29	1.63
	76.00	34.75	67.67	-0.00	0.0609	10.55	464.4	399.21	0.0686	562.6	10.127	21.28	12.35	1.64
	77.00	34.71	67.70	-0.00	0.0605	10.51	462.6	397.50	0.0673	552.9	9.952	20.90	12.08	1.64
	77.98	34.72	67.65	0.00	0.0608	10.54	463.8	398.79	0.0683	559.8	10.077	21.18	12.27	1.63
	78.98	34.76	67.68	0.00	0.0607	10.54	463.6	398.51	0.0684	561.6	10.108	21.24	12.32	1.63
	79.98	34.74	67.67	0.00	0.0608	10.54	463.6	398.54	0.0690	565.8	10.184	21.40	12.43	1.64
	81.00	34.73	67.68	0.00	0.0607	10.52	463.0	397.96	0.0690	564.3	10.157	21.34	12.39	1.63
	81.99	34.75	67.67	-0.00	0.0607	10.51	462.6	397.72	0.0689	563.4	10.142	21.31	12.37	1.63
	82.99	34.77	67.67	0.00	0.0607	10.52	462.9	398.03	0.0692	569.5	10.251	21.54	12.53	1.64
	84.04	34.76	67.67	-0.00	0.0607	10.52	463.1	398.14	0.0689	568.2	10.228	21.50	12.50	1.63
	85.05	34.69	67.68	0.00	0.0607	10.52	462.8	397.75	0.0689	563.3	10.139	21.30	12.36	1.63
	85.99	34.73	67.70	0.00	0.0607	10.52	462.8	397.67	0.0692	570.2	10.264	21.56	12.55	1.63
	87.00	34.71	67.68	-0.00	0.0607	10.51	462.4	397.48	0.0692	569.7	10.254	21.54	12.54	1.63
	88.00	34.72	67.67	0.00	0.0607	10.50	462.2	397.34	0.0691	570.2	10.264	21.57	12.55	1.64
	89.00	34.74	67.70	0.00	0.0606	10.51	462.4	397.29	0.0697	574.6	10.342	21.72	12.67	1.64
	90.00	34.71	67.65	-0.00	0.0606	10.50	462.1	397.33	0.0697	576.3	10.374	21.81	12.71	1.63
	90.98	34.66	67.70	0.00	0.0606	10.50	461.8	396.79	0.0698	576.1	10.370	21.78	12.70	1.64
	92.06	34.66	67.68	0.00	0.0606	10.50	462.0	397.03	0.0706	585.1	10.532	22.13	12.94	1.63
	92.98	34.64	67.67	0.00	0.0606	10.50	461.9	397.00	0.0700	580.9	10.455	21.96	12.83	1.63
	93.99	34.66	67.68	0.00	0.0607	10.51	462.5	397.49	0.0700	570.5	10.269	21.57	12.55	1.64
	94.99	34.71	67.67	0.00	0.0606	10.51	462.3	397.42	0.0697	578.1	10.407	21.87	12.76	1.64
	95.99	34.69	67.68	0.00	0.0606	10.50	462.0	397.12	0.0705	582.7	10.488	22.04	12.88	1.63
	97.00	34.66	67.70	0.00	0.0606	10.50	462.0	396.88	0.0707	586.1	10.549	22.15	12.97	1.63
	98.00	34.66	67.67	-0.00	0.0606	10.49	461.7	396.84	0.0706	586.4	10.556	22.18	12.98	1.64
	98.98	34.68	67.68	-0.00	0.0605	10.48	461.3	396.45	0.0712	592.3	10.661	22.40	13.13	1.63
	100.00	34.66	67.72	-0.00	0.0606	10.48	461.1	396.03	0.0709	591.0	10.637	22.33	13.09	1.64
	100.98	34.71	67.65	0.00	0.0606	10.49	461.4	396.80	0.0710	589.4	10.610	22.30	13.06	1.64
	101.99	34.66	67.68	0.00	0.0606	10.49	461.4	396.58	0.0712	593.3	10.680	22.44	13.15	1.63
	102.99	34.71	67.65	0.00	0.0605	10.48	461.1	396.50	0.0714	595.1	10.711	22.52	13.20	1.64
	103.99	34.68	67.62	0.00	0.0605	10.47	460.8	396.34	0.0712	595.7	10.722	22.54	13.22	1.63
	104.99	34.68	67.67	0.00	0.0605	10.48	460.9	396.20	0.0712	597.2	10.750	22.59	13.26	1.64
	105.99	34.73	67.68	-0.00	0.0605	10.47	460.7	396.05	0.0726	610.0	10.981	23.07	13.58	1.64
	106.97	34.74	67.65	0.00	0.0605	10.47	460.8	396.27	0.0728	611.1	11.000	23.12	13.61	1.64
	107.98	34.72	67.67	0.00	0.0605	10.47	460.8	396.13	0.0722	606.6	10.918	22.94	13.50	1.63
	109.00	34.71	67.65	0.00	0.0605	10.47	460.7	396.18	0.0724	608.1	10.945	23.01	13.53	1.63
	110.00	34.72	67.68	-0.00	0.0605	10.46	460.4	395.75	0.0722	606.9	10.924	22.95	13.50	1.64
	110.99	34.80	67.70	-0.00	0.0604	10.46	460.4	395.75	0.0721	606.6	10.919	22.94	13.50	1.64
	111.99	34.78	67.70	0.00	0.0604	10.46	460.4	395.67	0.0720	605.2	10.894	22.89	13.47	1.64
	112.99	34.76	67.67	-0.00	0.0604	10.45	459.7	395.19	0.0719	603.5	10.862	22.83	13.42	1.63
	113.97	34.73	67.68	0.00	0.0604	10.45	459.7	395.16	0.0718	604.6	10.883	22.87	13.45	1.64
	114.99	34.82	67.68	-0.00	0.0602	10.44	459.4	395.05	0.0713	601.3	10.824	22.75	13.37	1.64
	116.00	34.76	67.65	0.00	0.0604	10.45	459.8	395.40	0.0722	609.9	10.978	23.08	13.58	1.64
	116.98	34.74	67.70	0.00	0.0602	10.42	458.5	394.05	0.0720	601.6	10.828	22.75	13.37	1.64
	117.98	34.74	67.65	0.00	0.0601	10.39	457.1	393.11	0.0710	594.0	10.692	22.48	13.18	1.64
	118.98	34.71	67.67	0.00	0.0603	10.43	459.0	394.52	0.0712	597.5	10.755	22.60	13.27	1.63
	120.00	34.74	67.70	-0.00	0.0604	10.45	459.6	395.00	0.0716	600.1	10.802	22.69	13.33	1.64
	120.98	34.71	67.68	0.00	0.0605	10.47	460.7	395.99	0.0722	606.7	10.920	22.94	13.50	1.64
	121.99	34.68	67.65	0.00	0.0604	10.46	460.2	395.71	0.0718	601.7	10.831	22.77	13.37	1.64
	122.99	34.65	67.67	-0.00	0.0603	10.44	459.5	394.88	0.0711	597.7	10.758	22.60	13.27	1.64
