Jul 25 2015 at 9:47:16
Frequency: 1.00Hz.
CO2
Zero:  Value:0.95  Date:18 Mar 2005	 at 07:22:33	
Span:  Value:1.00  Date:18 Mar 2005	 at 07:25:09	
H2O
Zero:  Value:0.71  Date:18 Mar 2005	 at 07:52:31	
Span:  Value:0.99  Date:18 Mar 2005	 at 11:44:01	
	Relative Time	Temperature	Pressure	Aux Input	CO2 Absorptance	CO2 mmol/m3	CO2 mg/m3	CO2 umol/mol	H2O Absorptance	H2O mmol/m3	H2O g/m3	H2O mmol/mol	H2O(°C)	Cooler Voltage
	0.06	18.86	67.83	-0.00	0.0628	10.98	483.2	393.05	0.0511	371.5	6.687	13.30	5.42	1.53
	1.06	18.83	67.83	-0.00	0.0629	11.02	484.9	394.37	0.0522	376.0	6.769	13.46	5.59	1.53
	2.06	18.83	67.86	0.00	0.0627	10.96	482.3	392.17	0.0518	375.6	6.761	13.44	5.58	1.53
	3.04	18.81	67.83	0.00	0.0624	10.92	480.3	390.60	0.0513	371.1	6.680	13.28	5.40	1.53
	4.07	18.83	67.83	-0.00	0.0626	10.94	481.3	391.42	0.0516	373.3	6.720	13.36	5.49	1.53
	5.05	18.86	67.83	0.00	0.0626	10.95	481.6	391.77	0.0518	376.4	6.774	13.47	5.61	1.53
	6.07	18.88	67.83	-0.00	0.0626	10.93	481.1	391.34	0.0517	376.2	6.772	13.46	5.60	1.53
	7.05	18.86	67.83	0.00	0.0628	10.98	483.3	393.14	0.0513	372.0	6.695	13.31	5.44	1.53
	8.05	18.86	67.83	0.00	0.0627	10.97	482.6	392.55	0.0512	370.9	6.676	13.27	5.40	1.53
	9.05	18.91	67.83	0.00	0.0628	10.99	483.5	393.38	0.0512	370.6	6.671	13.27	5.39	1.53
	10.08	18.90	67.81	-0.00	0.0624	10.91	480.0	390.61	0.0509	367.2	6.610	13.15	5.26	1.53
	11.06	18.89	67.83	0.00	0.0624	10.89	479.1	389.73	0.0509	367.3	6.612	13.15	5.26	1.53
	12.06	18.90	67.83	-0.00	0.0624	10.89	479.1	389.76	0.0508	366.7	6.600	13.13	5.24	1.53
	13.07	18.90	67.83	-0.00	0.0624	10.89	479.3	389.95	0.0509	367.2	6.610	13.14	5.26	1.53
	14.06	18.88	67.83	-0.00	0.0623	10.88	478.6	389.35	0.0509	367.3	6.612	13.15	5.26	1.53
	15.05	18.86	67.81	0.00	0.0622	10.86	477.6	388.69	0.0509	365.9	6.585	13.10	5.20	1.53
	16.05	18.86	67.83	-0.00	0.0623	10.87	478.3	389.09	0.0509	367.3	6.611	13.15	5.26	1.53
	17.05	18.85	67.83	0.00	0.0623	10.86	478.0	388.82	0.0509	367.4	6.612	13.15	5.26	1.53
	18.07	18.86	67.83	0.00	0.0624	10.88	478.9	389.52	0.0510	368.2	6.627	13.18	5.29	1.53
	19.06	18.88	67.83	-0.00	0.0623	10.88	478.7	389.43	0.0510	368.6	6.634	13.19	5.31	1.53
	20.06	18.86	67.83	0.00	0.0623	10.88	478.6	389.32	0.0510	368.5	6.634	13.19	5.31	1.53
	21.12	18.88	67.81	0.00	0.0623	10.87	478.2	389.17	0.0511	368.7	6.637	13.20	5.31	1.53
	22.06	18.86	67.81	-0.00	0.0623	10.88	478.6	389.47	0.0511	369.2	6.646	13.22	5.33	1.53
	23.14	18.88	67.81	-0.00	0.0623	10.87	478.1	389.06	0.0511	369.2	6.645	13.22	5.33	1.53
	24.04	18.90	67.78	0.00	0.0623	10.87	478.4	389.46	0.0512	370.6	6.671	13.28	5.39	1.53
	25.09	18.90	67.83	-0.00	0.0623	10.86	478.0	388.88	0.0513	370.7	6.672	13.27	5.39	1.53
	26.05	18.88	67.81	0.00	0.0623	10.86	478.0	388.99	0.0513	370.5	6.670	13.27	5.38	1.53
	27.08	18.88	67.78	-0.00	0.0623	10.87	478.4	389.45	0.0514	371.9	6.694	13.32	5.44	1.53
	28.07	18.91	67.83	-0.00	0.0622	10.86	478.0	388.83	0.0513	372.0	6.696	13.32	5.44	1.53
	29.05	18.91	67.81	0.00	0.0623	10.86	477.6	388.73	0.0514	371.9	6.695	13.32	5.44	1.53
	30.06	18.91	67.81	-0.00	0.0623	10.87	478.5	389.43	0.0515	373.5	6.724	13.38	5.50	1.53
	31.04	18.91	67.83	0.00	0.0622	10.86	477.6	388.60	0.0515	372.9	6.713	13.35	5.48	1.53
	32.14	18.93	67.81	-0.00	0.0622	10.85	477.4	388.54	0.0515	372.6	6.707	13.34	5.47	1.53
	33.04	18.91	67.83	0.00	0.0622	10.84	477.1	388.13	0.0515	372.3	6.701	13.33	5.45	1.53
	34.05	18.93	67.83	0.00	0.0622	10.84	477.1	388.21	0.0514	372.7	6.708	13.34	5.47	1.53
	35.05	18.91	67.81	-0.00	0.0622	10.84	476.8	388.07	0.0514	372.8	6.710	13.35	5.47	1.53
	36.07	18.93	67.81	-0.00	0.0621	10.83	476.6	387.90	0.0515	373.1	6.716	13.36	5.49	1.53
	37.05	18.95	67.81	0.00	0.0621	10.83	476.7	388.03	0.0515	373.4	6.721	13.37	5.50	1.53
	38.06	18.95	67.81	0.00	0.0621	10.83	476.4	387.81	0.0514	372.5	6.704	13.34	5.46	1.53
	39.06	18.95	67.83	0.00	0.0620	10.81	475.7	387.10	0.0513	371.1	6.681	13.29	5.41	1.53
	40.06	18.95	67.83	-0.00	0.0621	10.82	476.2	387.44	0.0513	372.3	6.701	13.33	5.46	1.53
	41.08	18.93	67.81	-0.00	0.0621	10.83	476.6	387.90	0.0514	373.0	6.713	13.36	5.48	1.53
	42.06	18.95	67.83	-0.00	0.0621	10.83	476.5	387.74	0.0515	373.2	6.717	13.36	5.49	1.53
	43.07	18.95	67.83	-0.00	0.0621	10.83	476.6	387.82	0.0515	373.1	6.716	13.36	5.49	1.53
	44.04	18.93	67.83	0.00	0.0621	10.82	476.3	387.49	0.0514	371.7	6.691	13.31	5.43	1.53
	45.07	18.96	67.83	-0.00	0.0621	10.82	476.2	387.46	0.0514	372.0	6.696	13.32	5.45	1.53
	46.05	18.95	67.81	-0.00	0.0620	10.82	476.2	387.59	0.0514	373.1	6.715	13.36	5.49	1.53
	47.08	18.96	67.81	-0.00	0.0620	10.82	475.9	387.37	0.0515	373.4	6.721	13.37	5.50	1.53
	48.06	18.94	67.83	0.00	0.0620	10.82	476.0	387.25	0.0515	373.7	6.726	13.38	5.51	1.53
	49.06	18.95	67.81	-0.00	0.0621	10.82	476.0	387.45	0.0516	373.9	6.730	13.39	5.52	1.53
	50.06	18.94	67.81	0.00	0.0621	10.81	475.8	387.29	0.0516	373.7	6.727	13.39	5.51	1.53
	51.04	18.96	67.83	0.00	0.0620	10.81	475.8	387.14	0.0515	373.1	6.716	13.36	5.49	1.53
	52.07	18.96	67.81	-0.00	0.0620	10.81	475.8	387.32	0.0514	372.4	6.703	13.34	5.46	1.53
	53.06	18.96	67.83	-0.00	0.0620	10.82	475.9	387.27	0.0513	371.4	6.685	13.30	5.42	1.53
	54.05	18.95	67.83	0.00	0.0621	10.82	476.0	387.33	0.0513	371.0	6.679	13.28	5.41	1.53
	55.05	18.96	67.81	0.00	0.0621	10.82	476.0	387.47	0.0514	371.4	6.686	13.30	5.42	1.53
	56.05	18.96	67.83	0.00	0.0621	10.82	476.1	387.38	0.0517	372.8	6.710	13.35	5.48	1.53
	57.06	18.96	67.86	-0.00	0.0621	10.83	476.4	387.45	0.0519	377.5	6.795	13.51	5.66	1.53
	58.06	18.96	67.81	0.00	0.0621	10.83	476.6	387.93	0.0524	382.4	6.882	13.69	5.84	1.53
	59.05	18.96	67.81	0.00	0.0620	10.82	475.9	387.38	0.0519	378.6	6.816	13.56	5.70	1.53
	60.06	18.96	67.81	-0.00	0.0620	10.82	475.9	387.40	0.0518	375.9	6.765	13.46	5.59	1.53
	61.04	18.98	67.81	0.00	0.0620	10.81	475.5	387.11	0.0516	374.0	6.733	13.40	5.52	1.53
	62.06	18.98	67.83	0.00	0.0620	10.81	475.5	386.94	0.0515	373.1	6.716	13.36	5.49	1.53
	63.06	18.98	67.83	0.00	0.0621	10.82	475.9	387.26	0.0514	372.6	6.707	13.34	5.47	1.53
	64.05	18.98	67.81	0.00	0.0620	10.81	475.6	387.20	0.0513	371.0	6.677	13.29	5.41	1.53
	65.13	18.96	67.78	0.00	0.0620	10.81	475.6	387.31	0.0512	370.2	6.663	13.26	5.37	1.53
	66.07	18.95	67.81	-0.00	0.0621	10.82	476.2	387.60	0.0515	373.3	6.720	13.37	5.50	1.53
	67.05	18.95	67.79	0.00	0.0621	10.82	476.2	387.75	0.0516	373.4	6.722	13.38	5.50	1.53
	68.05	18.94	67.83	0.00	0.0620	10.81	475.8	387.13	0.0518	375.6	6.761	13.45	5.58	1.53
	69.06	18.95	67.83	-0.00	0.0620	10.81	475.5	386.87	0.0519	377.5	6.796	13.52	5.66	1.53
	70.05	18.96	67.81	0.00	0.0619	10.79	474.8	386.52	0.0518	376.5	6.777	13.49	5.62	1.53
	71.07	18.96	67.83	-0.00	0.0619	10.79	474.8	386.31	0.0518	376.1	6.770	13.46	5.60	1.53
	72.06	18.96	67.83	0.00	0.0620	10.80	475.1	386.56	0.0519	376.7	6.780	13.49	5.63	1.53
	73.07	18.94	67.81	-0.00	0.0620	10.80	475.0	386.61	0.0518	376.2	6.771	13.47	5.60	1.53
	74.07	18.94	67.81	-0.00	0.0620	10.79	474.9	386.52	0.0517	374.8	6.746	13.42	5.55	1.53
	75.07	18.96	67.81	-0.00	0.0620	10.80	475.3	386.94	0.0518	376.6	6.778	13.49	5.62	1.53
	76.05	18.96	67.83	0.00	0.0620	10.81	475.6	387.00	0.0518	376.4	6.775	13.48	5.61	1.53
	77.06	18.96	67.83	-0.00	0.0620	10.81	475.6	386.98	0.0519	377.3	6.791	13.51	5.65	1.53
	78.05	18.96	67.81	0.00	0.0620	10.81	475.7	387.25	0.0520	377.7	6.799	13.53	5.67	1.53
	79.05	18.98	67.83	0.00	0.0620	10.81	475.7	387.07	0.0519	377.4	6.793	13.51	5.65	1.53
	80.06	18.99	67.83	-0.00	0.0620	10.81	475.6	387.05	0.0520	378.3	6.810	13.55	5.69	1.53
	81.06	18.99	67.86	-0.00	0.0620	10.81	475.6	386.92	0.0523	381.0	6.858	13.64	5.79	1.53
	82.06	19.00	67.83	0.00	0.0620	10.81	475.7	387.09	0.0526	383.5	6.903	13.73	5.89	1.53
	83.13	18.99	67.83	0.00	0.0620	10.81	475.8	387.15	0.0527	385.6	6.941	13.81	5.97	1.53
	84.05	19.01	67.83	0.00	0.0620	10.80	475.4	386.90	0.0526	384.7	6.924	13.77	5.93	1.53
	85.05	19.01	67.83	-0.00	0.0619	10.80	475.1	386.64	0.0525	383.9	6.909	13.75	5.90	1.53
	86.05	19.00	67.83	0.00	0.0619	10.79	474.8	386.36	0.0525	383.4	6.902	13.73	5.88	1.53
	87.13	19.00	67.83	-0.00	0.0620	10.80	475.1	386.61	0.0527	384.8	6.927	13.78	5.94	1.53
	88.06	18.99	67.81	-0.00	0.0620	10.80	475.4	387.01	0.0527	384.8	6.927	13.78	5.94	1.53
	89.05	18.99	67.81	0.00	0.0620	10.80	475.3	386.91	0.0525	383.6	6.906	13.74	5.89	1.53
	90.04	19.01	67.83	0.00	0.0619	10.80	475.1	386.67	0.0525	382.9	6.892	13.71	5.87	1.53
	91.07	19.01	67.81	-0.00	0.0619	10.79	474.7	386.45	0.0523	381.7	6.871	13.68	5.82	1.53
	92.06	18.99	67.81	-0.00	0.0619	10.78	474.2	386.07	0.0523	381.3	6.864	13.66	5.80	1.54
	93.06	19.03	67.83	0.00	0.0619	10.78	474.3	386.02	0.0524	382.2	6.880	13.69	5.84	1.53
	94.05	19.05	67.85	-0.00	0.0618	10.77	473.9	385.60	0.0524	382.1	6.878	13.68	5.84	1.53
	95.07	19.03	67.83	-0.00	0.0619	10.77	474.0	385.82	0.0524	381.8	6.872	13.67	5.82	1.53
	96.05	19.03	67.83	0.00	0.0618	10.77	473.9	385.71	0.0523	381.1	6.859	13.65	5.80	1.53
	97.05	19.06	67.83	-0.00	0.0618	10.77	473.7	385.60	0.0523	381.0	6.857	13.64	5.79	1.54
	98.06	19.03	67.83	0.00	0.0618	10.77	473.7	385.54	0.0524	382.5	6.885	13.70	5.85	1.54
	99.14	19.03	67.81	0.00	0.0618	10.76	473.3	385.36	0.0524	382.5	6.884	13.70	5.85	1.54
	100.08	19.05	67.85	0.00	0.0618	10.76	473.4	385.17	0.0525	383.4	6.902	13.73	5.89	1.53
	101.06	19.05	67.86	0.00	0.0618	10.76	473.4	385.15	0.0526	384.0	6.912	13.75	5.91	1.53
	102.07	19.04	67.81	-0.00	0.0619	10.77	473.7	385.73	0.0527	384.5	6.921	13.77	5.93	1.54
	103.13	19.05	67.78	-0.00	0.0618	10.76	473.4	385.58	0.0526	384.2	6.916	13.77	5.92	1.54
	104.07	19.05	67.86	-0.00	0.0618	10.76	473.5	385.24	0.0525	383.8	6.909	13.74	5.90	1.54
	105.07	19.05	67.83	-0.00	0.0618	10.77	473.7	385.55	0.0526	383.8	6.908	13.75	5.90	1.54
	106.06	19.06	67.83	-0.00	0.0618	10.76	473.5	385.46	0.0526	383.7	6.907	13.74	5.90	1.53
	107.06	19.05	67.81	-0.00	0.0618	10.76	473.2	385.34	0.0527	384.3	6.917	13.77	5.92	1.53
	108.06	19.03	67.83	0.00	0.0618	10.76	473.4	385.31	0.0527	384.8	6.926	13.78	5.94	1.54
	109.05	19.04	67.83	0.00	0.0617	10.76	473.2	385.16	0.0527	385.6	6.942	13.81	5.97	1.54
	110.07	19.05	67.83	-0.00	0.0618	10.76	473.3	385.21	0.0527	386.0	6.948	13.82	5.98	1.54
	111.04	19.04	67.83	0.00	0.0618	10.76	473.6	385.44	0.0528	386.6	6.959	13.85	6.01	1.54
	112.06	19.03	67.83	0.00	0.0618	10.75	473.2	385.15	0.0528	386.7	6.961	13.85	6.01	1.54
	113.05	19.05	67.81	-0.00	0.0618	10.76	473.3	385.39	0.0528	386.2	6.952	13.84	5.99	1.54
	114.07	19.05	67.81	-0.00	0.0618	10.75	473.2	385.29	0.0528	385.6	6.941	13.82	5.97	1.54
	115.13	19.05	67.83	0.00	0.0617	10.74	472.5	384.59	0.0527	385.0	6.930	13.79	5.94	1.54
	116.05	19.06	67.83	0.00	0.0617	10.74	472.6	384.66	0.0526	385.1	6.933	13.79	5.95	1.54
	117.06	19.08	67.83	0.00	0.0618	10.75	473.1	385.11	0.0528	386.0	6.948	13.83	5.98	1.54
	118.05	19.06	67.83	0.00	0.0619	10.77	473.8	385.66	0.0530	388.4	6.991	13.91	6.07	1.54
	119.06	19.08	67.85	0.00	0.0617	10.75	473.0	384.90	0.0531	388.8	6.998	13.92	6.09	1.54
	120.04	19.06	67.83	0.00	0.0617	10.74	472.3	384.47	0.0532	389.5	7.012	13.95	6.12	1.54
	121.06	19.10	67.85	0.00	0.0618	10.75	472.8	384.78	0.0531	390.2	7.024	13.97	6.14	1.54
	122.06	19.08	67.81	0.00	0.0619	10.78	474.1	386.08	0.0534	391.8	7.053	14.04	6.20	1.54
	123.05	19.06	67.83	0.00	0.0619	10.77	473.8	385.64	0.0536	393.9	7.091	14.11	6.28	1.54
	124.05	19.06	67.83	-0.00	0.0618	10.77	473.8	385.70	0.0539	398.0	7.164	14.25	6.43	1.54
	125.05	19.08	67.83	0.00	0.0617	10.74	472.4	384.53	0.0537	395.4	7.118	14.16	6.33	1.54
	126.05	19.10	67.83	0.00	0.0616	10.71	471.2	383.59	0.0534	392.8	7.070	14.07	6.24	1.54
	127.06	19.10	67.83	0.00	0.0616	10.71	471.1	383.50	0.0535	392.7	7.068	14.07	6.23	1.54
	128.06	19.09	67.83	-0.00	0.0617	10.73	472.2	384.40	0.0537	394.9	7.108	14.14	6.31	1.54
