Jul 25 2015 at 10:49:35
Frequency: 1.00Hz.
CO2
Zero:  Value:0.95  Date:18 Mar 2005	 at 07:22:33	
Span:  Value:1.00  Date:18 Mar 2005	 at 07:25:09	
H2O
Zero:  Value:0.71  Date:18 Mar 2005	 at 07:52:31	
Span:  Value:0.99  Date:18 Mar 2005	 at 11:44:01	
	Relative Time	Temperature	Pressure	Aux Input	CO2 Absorptance	CO2 mmol/m3	CO2 mg/m3	CO2 umol/mol	H2O Absorptance	H2O mmol/m3	H2O g/m3	H2O mmol/mol	H2O(°C)	Cooler Voltage
	0.83	21.69	67.78	0.00	0.0618	10.78	474.4	389.89	0.0566	427.5	7.696	15.46	7.60	1.60
	1.84	21.69	67.81	0.00	0.0616	10.73	472.0	387.79	0.0565	425.2	7.654	15.37	7.52	1.60
	2.90	21.69	67.81	0.00	0.0620	10.74	472.5	388.22	0.0574	426.3	7.673	15.41	7.56	1.60
	3.84	21.69	67.81	0.00	0.0622	10.83	476.7	391.65	0.0579	438.7	7.897	15.86	7.98	1.60
	4.84	21.71	67.81	-0.00	0.0620	10.83	476.6	391.59	0.0575	437.7	7.878	15.82	7.95	1.60
	5.85	21.71	67.81	-0.00	0.0617	10.76	473.5	389.10	0.0572	433.0	7.794	15.65	7.79	1.60
	6.83	21.74	67.81	0.00	0.0615	10.69	470.6	386.71	0.0568	426.8	7.682	15.43	7.58	1.60
	7.85	21.72	67.81	-0.00	0.0617	10.76	473.4	389.00	0.0574	436.9	7.865	15.80	7.92	1.60
	8.83	21.70	67.81	0.00	0.0616	10.72	471.8	387.67	0.0572	432.2	7.780	15.63	7.76	1.60
	9.84	21.70	67.81	0.00	0.0616	10.72	471.5	387.45	0.0577	436.8	7.863	15.79	7.92	1.60
	10.86	21.69	67.81	-0.00	0.0615	10.71	471.3	387.26	0.0578	438.6	7.895	15.86	7.98	1.60
	11.86	21.69	67.81	0.00	0.0615	10.69	470.2	386.33	0.0578	438.8	7.898	15.86	7.98	1.60
	12.84	21.70	67.80	0.00	0.0615	10.70	470.6	386.71	0.0579	439.7	7.915	15.90	8.01	1.60
	13.84	21.71	67.83	0.00	0.0615	10.70	470.8	386.71	0.0581	442.2	7.959	15.98	8.10	1.60
	14.84	21.70	67.81	0.00	0.0615	10.70	470.8	386.83	0.0583	443.1	7.975	16.02	8.13	1.60
	15.83	21.74	67.83	0.00	0.0616	10.71	471.3	387.12	0.0584	444.1	7.995	16.05	8.16	1.60
	16.83	21.74	67.78	-0.00	0.0615	10.70	471.0	387.20	0.0582	444.0	7.992	16.06	8.16	1.60
	17.85	21.74	67.81	0.00	0.0614	10.66	469.2	385.54	0.0582	442.9	7.971	16.01	8.12	1.60
	18.84	21.76	67.81	-0.00	0.0615	10.69	470.5	386.66	0.0582	442.5	7.966	16.00	8.11	1.60
	19.86	21.74	67.81	0.00	0.0615	10.68	469.8	386.02	0.0583	444.5	8.000	16.07	8.17	1.60
	20.84	21.77	67.81	0.00	0.0615	10.69	470.4	386.63	0.0581	441.4	7.945	15.96	8.07	1.60
	21.86	21.79	67.81	-0.00	0.0615	10.69	470.2	386.49	0.0582	442.4	7.963	16.00	8.11	1.60
	22.85	21.79	67.81	-0.00	0.0614	10.68	469.9	386.18	0.0580	441.5	7.947	15.97	8.08	1.60
	23.84	21.82	67.78	0.00	0.0614	10.67	469.7	386.21	0.0580	441.0	7.937	15.95	8.06	1.60
	24.84	21.86	67.78	0.00	0.0614	10.68	469.8	386.39	0.0581	442.2	7.959	16.00	8.10	1.60
	25.91	21.88	67.81	0.00	0.0614	10.67	469.6	386.08	0.0581	442.3	7.962	16.00	8.11	1.60
	26.83	21.88	67.81	0.00	0.0614	10.67	469.4	385.88	0.0581	441.4	7.946	15.97	8.08	1.60
	27.85	21.88	67.81	0.00	0.0614	10.66	468.9	385.54	0.0580	440.5	7.929	15.93	8.05	1.60
	28.83	21.88	67.81	0.00	0.0613	10.65	468.8	385.41	0.0581	442.0	7.956	15.99	8.10	1.60
	29.84	21.86	67.81	0.00	0.0613	10.66	468.8	385.43	0.0586	447.4	8.053	16.18	8.28	1.60
	30.83	21.88	67.83	0.00	0.0613	10.65	468.7	385.19	0.0584	445.6	8.020	16.11	8.22	1.60
	31.86	21.86	67.80	-0.00	0.0613	10.64	468.4	385.07	0.0587	449.5	8.090	16.26	8.34	1.60
	32.84	21.86	67.81	-0.00	0.0613	10.64	468.2	384.87	0.0587	447.3	8.052	16.18	8.28	1.60
	33.87	21.86	67.83	-0.00	0.0613	10.64	468.2	384.78	0.0591	452.5	8.146	16.36	8.45	1.60
	34.85	21.86	67.83	0.00	0.0612	10.64	467.9	384.58	0.0588	450.4	8.106	16.29	8.37	1.60
	35.85	21.88	67.81	-0.00	0.0613	10.64	468.3	385.00	0.0590	451.4	8.125	16.33	8.41	1.60
	36.85	21.86	67.81	0.00	0.0613	10.65	468.4	385.06	0.0590	451.3	8.124	16.33	8.41	1.60
	37.85	21.84	67.81	-0.00	0.0613	10.65	468.5	385.14	0.0589	450.2	8.103	16.28	8.37	1.60
	38.84	21.83	67.81	-0.00	0.0613	10.65	468.6	385.22	0.0589	450.1	8.102	16.28	8.36	1.60
	39.84	21.85	67.81	0.00	0.0613	10.65	468.5	385.15	0.0590	451.2	8.122	16.32	8.40	1.60
	40.84	21.83	67.81	-0.00	0.0612	10.64	468.2	384.89	0.0588	450.4	8.108	16.29	8.38	1.60
	41.84	21.81	67.81	0.00	0.0613	10.64	468.2	384.82	0.0589	450.1	8.102	16.28	8.36	1.60
	42.85	21.81	67.83	-0.00	0.0613	10.64	468.2	384.73	0.0588	450.0	8.100	16.27	8.36	1.60
	43.85	21.81	67.81	-0.00	0.0613	10.64	468.1	384.77	0.0587	448.9	8.080	16.23	8.32	1.60
	44.84	21.81	67.81	0.00	0.0612	10.63	467.8	384.53	0.0585	446.5	8.037	16.15	8.24	1.60
	45.87	21.81	67.78	-0.00	0.0613	10.63	467.9	384.71	0.0586	446.5	8.037	16.15	8.24	1.60
	46.85	21.77	67.81	-0.00	0.0612	10.63	467.9	384.52	0.0585	446.8	8.042	16.16	8.25	1.60
	47.85	21.77	67.81	0.00	0.0612	10.64	468.0	384.59	0.0586	447.9	8.062	16.20	8.29	1.60
	48.83	21.77	67.83	0.00	0.0612	10.63	467.9	384.36	0.0589	450.5	8.110	16.29	8.38	1.60
	49.84	21.77	67.83	0.00	0.0613	10.64	468.1	384.59	0.0591	452.6	8.146	16.36	8.44	1.60
	50.84	21.77	67.81	0.00	0.0613	10.64	468.3	384.86	0.0591	451.8	8.133	16.34	8.42	1.60
	51.84	21.77	67.78	0.00	0.0613	10.64	468.1	384.88	0.0591	453.4	8.161	16.40	8.47	1.60
	52.84	21.77	67.78	0.00	0.0612	10.64	467.9	384.71	0.0593	454.5	8.181	16.44	8.50	1.60
	53.82	21.79	67.81	0.00	0.0612	10.63	467.7	384.41	0.0595	457.3	8.231	16.54	8.60	1.60
	54.85	21.79	67.81	-0.00	0.0612	10.63	467.7	384.37	0.0596	458.2	8.247	16.57	8.63	1.60
	55.82	21.77	67.81	0.00	0.0612	10.63	467.6	384.32	0.0599	460.3	8.286	16.65	8.69	1.60
	56.85	21.77	67.81	0.00	0.0612	10.63	467.5	384.25	0.0600	461.9	8.315	16.70	8.74	1.60
	57.84	21.78	67.76	0.00	0.0611	10.62	467.2	384.24	0.0600	462.9	8.332	16.75	8.78	1.60
	58.84	21.79	67.81	0.00	0.0611	10.61	466.7	383.60	0.0600	463.9	8.351	16.78	8.81	1.60
	59.84	21.76	67.81	0.00	0.0611	10.61	466.8	383.60	0.0601	464.1	8.354	16.78	8.81	1.60
	60.86	21.76	67.81	-0.00	0.0611	10.61	467.0	383.82	0.0600	462.8	8.331	16.74	8.77	1.60
	61.85	21.76	67.81	-0.00	0.0611	10.61	467.0	383.79	0.0601	463.1	8.335	16.75	8.78	1.60
	62.85	21.76	67.83	0.00	0.0612	10.61	467.0	383.65	0.0601	463.3	8.339	16.74	8.79	1.60
	63.85	21.76	67.83	-0.00	0.0612	10.62	467.1	383.78	0.0601	463.0	8.334	16.74	8.78	1.60
	64.85	21.77	67.78	0.00	0.0611	10.61	466.9	383.83	0.0599	462.4	8.322	16.73	8.76	1.60
	65.83	21.77	67.81	0.00	0.0611	10.61	466.7	383.56	0.0601	463.2	8.338	16.75	8.79	1.60
	66.85	21.77	67.83	-0.00	0.0611	10.61	466.8	383.48	0.0603	465.0	8.370	16.81	8.84	1.60
	67.84	21.79	67.85	-0.00	0.0611	10.60	466.4	383.12	0.0603	465.7	8.383	16.83	8.87	1.60
	68.92	21.81	67.83	-0.00	0.0611	10.60	466.4	383.26	0.0604	466.7	8.400	16.87	8.90	1.60
	69.84	21.81	67.81	-0.00	0.0611	10.59	466.0	383.01	0.0605	468.2	8.428	16.93	8.95	1.60
	70.84	21.81	67.81	0.00	0.0610	10.59	466.2	383.16	0.0606	469.8	8.457	16.99	9.00	1.60
	71.90	21.81	67.78	0.00	0.0610	10.59	466.0	383.14	0.0607	469.8	8.456	17.00	9.00	1.60
	72.85	21.81	67.81	-0.00	0.0611	10.59	466.1	383.08	0.0607	470.1	8.462	17.00	9.01	1.60
	73.84	21.83	67.81	-0.00	0.0610	10.59	465.9	382.97	0.0610	472.5	8.505	17.09	9.08	1.60
	74.86	21.81	67.78	-0.00	0.0610	10.58	465.5	382.73	0.0611	474.5	8.541	17.17	9.14	1.60
	75.85	21.81	67.81	0.00	0.0610	10.58	465.4	382.48	0.0611	474.5	8.542	17.16	9.14	1.60
	76.85	21.81	67.81	0.00	0.0610	10.57	465.0	382.25	0.0612	476.3	8.573	17.22	9.20	1.60
	77.86	21.83	67.83	-0.00	0.0610	10.57	465.1	382.14	0.0613	476.9	8.584	17.24	9.22	1.60
	78.84	21.83	67.81	0.00	0.0610	10.57	465.2	382.36	0.0614	477.1	8.588	17.26	9.23	1.60
	79.84	21.82	67.81	0.00	0.0609	10.57	464.9	382.15	0.0613	477.0	8.585	17.25	9.22	1.60
	80.90	21.84	67.81	0.00	0.0610	10.57	464.9	382.15	0.0614	477.6	8.598	17.28	9.24	1.60
	81.82	21.84	67.78	0.00	0.0609	10.57	465.0	382.44	0.0615	478.5	8.613	17.31	9.27	1.60
	82.85	21.84	67.81	0.00	0.0610	10.57	464.9	382.17	0.0615	479.9	8.639	17.36	9.31	1.60
	83.85	21.83	67.81	-0.00	0.0609	10.56	464.8	382.05	0.0617	480.8	8.654	17.39	9.34	1.60
	84.85	21.86	67.81	0.00	0.0609	10.56	464.8	382.08	0.0617	481.7	8.670	17.42	9.37	1.60
	85.83	21.86	67.83	0.00	0.0609	10.56	464.4	381.66	0.0619	483.3	8.699	17.47	9.42	1.60
	86.86	21.86	67.81	-0.00	0.0609	10.56	464.5	381.83	0.0621	485.8	8.744	17.57	9.50	1.60
	87.83	21.86	67.81	0.00	0.0608	10.55	464.3	381.73	0.0623	488.2	8.787	17.66	9.57	1.60
	88.83	21.86	67.81	0.00	0.0609	10.55	464.2	381.63	0.0624	489.3	8.808	17.70	9.60	1.60
	89.84	21.88	67.81	0.00	0.0609	10.55	464.2	381.61	0.0624	489.3	8.808	17.70	9.60	1.60
	90.82	21.89	67.81	0.00	0.0609	10.55	464.2	381.68	0.0621	486.5	8.757	17.60	9.52	1.60
	91.92	21.91	67.81	-0.00	0.0608	10.55	464.0	381.56	0.0620	484.5	8.721	17.53	9.46	1.60
	92.84	21.91	67.78	-0.00	0.0608	10.54	463.8	381.54	0.0623	488.3	8.790	17.67	9.58	1.60
	93.83	21.87	67.81	0.00	0.0608	10.54	463.6	381.17	0.0623	488.2	8.787	17.66	9.57	1.60
	94.83	21.89	67.81	-0.00	0.0608	10.54	463.8	381.32	0.0624	488.8	8.799	17.68	9.59	1.60
	95.85	21.89	67.78	-0.00	0.0608	10.53	463.4	381.19	0.0627	491.7	8.851	17.80	9.68	1.60
	96.85	21.89	67.83	-0.00	0.0608	10.53	463.1	380.63	0.0628	494.0	8.892	17.86	9.75	1.60
	97.84	21.86	67.79	0.00	0.0608	10.54	463.6	381.20	0.0627	493.2	8.878	17.85	9.72	1.60
	98.92	21.88	67.81	-0.00	0.0607	10.52	462.9	380.57	0.0628	494.3	8.897	17.88	9.76	1.60
	99.86	21.88	67.78	0.00	0.0607	10.52	462.7	380.54	0.0630	496.1	8.930	17.95	9.81	1.60
	100.84	21.88	67.80	0.00	0.0607	10.51	462.5	380.23	0.0631	497.2	8.950	17.99	9.84	1.60
	101.82	21.88	67.81	0.00	0.0607	10.51	462.3	380.06	0.0631	497.4	8.954	17.99	9.85	1.60
	102.84	21.89	67.78	0.00	0.0608	10.52	462.7	380.55	0.0630	495.7	8.922	17.94	9.80	1.60
	103.83	21.89	67.78	0.00	0.0607	10.51	462.4	380.35	0.0630	496.5	8.937	17.97	9.82	1.60
	104.85	21.88	67.81	0.00	0.0607	10.51	462.5	380.26	0.0626	492.5	8.865	17.82	9.70	1.60
	105.85	21.88	67.81	0.00	0.0607	10.52	462.9	380.58	0.0625	490.5	8.828	17.74	9.64	1.60
	106.83	21.89	67.81	0.00	0.0607	10.52	462.9	380.59	0.0626	492.0	8.857	17.80	9.69	1.60
	107.84	21.91	67.81	0.00	0.0607	10.52	462.8	380.54	0.0625	490.8	8.835	17.76	9.65	1.60
	108.84	21.89	67.75	-0.00	0.0607	10.51	462.6	380.67	0.0626	491.1	8.840	17.78	9.66	1.60
	109.86	21.89	67.81	-0.00	0.0607	10.52	462.7	380.45	0.0628	493.3	8.880	17.85	9.73	1.60
	110.84	21.93	67.81	-0.00	0.0607	10.51	462.3	380.11	0.0631	497.4	8.954	18.00	9.85	1.60
	111.85	22.00	67.83	-0.00	0.0606	10.49	461.6	379.54	0.0631	496.9	8.943	17.98	9.84	1.60
	112.84	21.98	67.75	-0.00	0.0606	10.49	461.5	379.87	0.0633	498.0	8.964	18.04	9.87	1.60
	113.85	22.00	67.81	-0.00	0.0605	10.48	461.0	379.12	0.0636	502.7	9.049	18.19	10.01	1.60
	114.91	21.98	67.81	-0.00	0.0605	10.47	460.8	378.97	0.0637	503.3	9.060	18.21	10.03	1.60
	115.83	22.00	67.81	0.00	0.0606	10.48	461.2	379.35	0.0633	500.0	9.000	18.10	9.93	1.60
