Jul 25 2015 at 9:07:49
Frequency: 1.00Hz.
CO2
Zero:  Value:0.95  Date:18 Mar 2005	 at 07:22:33	
Span:  Value:1.00  Date:18 Mar 2005	 at 07:25:09	
H2O
Zero:  Value:0.71  Date:18 Mar 2005	 at 07:52:31	
Span:  Value:0.99  Date:18 Mar 2005	 at 11:44:01	
	Relative Time	Temperature	Pressure	Aux Input	CO2 Absorptance	CO2 mmol/m3	CO2 mg/m3	CO2 umol/mol	H2O Absorptance	H2O mmol/m3	H2O g/m3	H2O mmol/mol	H2O(°C)	Cooler Voltage
	0.22	11.42	67.83	-0.00	0.0625	10.93	480.9	381.24	0.0585	447.1	8.048	15.60	7.74	1.44
	1.20	11.43	67.81	0.00	0.0624	10.90	479.6	380.31	0.0588	448.8	8.078	15.66	7.79	1.43
	2.21	11.42	67.83	-0.00	0.0623	10.90	479.5	380.09	0.0588	449.5	8.091	15.68	7.82	1.44
	3.21	11.43	67.83	-0.00	0.0622	10.84	477.0	378.16	0.0591	451.9	8.134	15.76	7.89	1.44
	4.21	11.40	67.81	0.00	0.0622	10.85	477.6	378.68	0.0592	453.7	8.166	15.83	7.95	1.44
	5.23	11.42	67.81	0.00	0.0621	10.84	476.8	378.05	0.0594	457.1	8.228	15.95	8.06	1.44
	6.24	11.42	67.81	0.00	0.0621	10.82	476.0	377.48	0.0596	458.4	8.251	15.99	8.10	1.44
	7.22	11.42	67.81	-0.00	0.0621	10.83	476.5	377.83	0.0598	460.3	8.285	16.06	8.16	1.44
	8.22	11.42	67.81	0.00	0.0622	10.84	477.1	378.29	0.0599	461.3	8.303	16.09	8.20	1.43
	9.22	11.45	67.81	0.00	0.0621	10.83	476.4	377.78	0.0598	460.3	8.286	16.06	8.17	1.44
	10.22	11.43	67.81	-0.00	0.0622	10.84	477.2	378.40	0.0599	461.3	8.304	16.10	8.20	1.44
	11.22	11.42	67.81	-0.00	0.0622	10.84	477.0	378.24	0.0600	462.4	8.323	16.13	8.23	1.44
	12.21	11.46	67.85	0.00	0.0621	10.82	476.3	377.49	0.0601	464.2	8.355	16.19	8.29	1.44
	13.21	11.45	67.81	0.00	0.0619	10.77	474.0	375.91	0.0605	467.6	8.416	16.32	8.40	1.44
	14.21	11.45	67.83	-0.00	0.0619	10.78	474.5	376.15	0.0606	468.4	8.431	16.34	8.42	1.44
	15.21	11.46	67.83	0.00	0.0620	10.79	474.9	376.52	0.0604	466.9	8.404	16.29	8.38	1.44
	16.21	11.45	67.81	0.00	0.0621	10.82	475.9	377.39	0.0605	467.9	8.423	16.33	8.41	1.44
	17.22	11.46	67.81	-0.00	0.0620	10.82	475.9	377.41	0.0605	468.3	8.430	16.34	8.42	1.44
	18.20	11.45	67.81	0.00	0.0620	10.80	475.3	376.96	0.0608	471.1	8.481	16.44	8.51	1.44
	19.23	11.45	67.81	-0.00	0.0620	10.80	475.2	376.88	0.0607	470.1	8.462	16.40	8.48	1.44
	20.23	11.46	67.81	0.00	0.0621	10.82	476.2	377.62	0.0605	467.8	8.421	16.32	8.41	1.44
	21.23	11.47	67.83	-0.00	0.0620	10.80	475.3	376.85	0.0605	468.1	8.426	16.33	8.42	1.44
	22.21	11.47	67.83	-0.00	0.0620	10.81	475.7	377.11	0.0607	470.4	8.467	16.41	8.49	1.44
	23.21	11.48	67.82	0.00	0.0621	10.82	476.1	377.56	0.0608	471.4	8.485	16.45	8.52	1.44
	24.29	11.50	67.81	-0.00	0.0621	10.83	476.7	378.08	0.0608	472.1	8.497	16.47	8.54	1.44
	25.23	11.51	67.81	-0.00	0.0620	10.81	475.7	377.34	0.0608	471.5	8.486	16.45	8.52	1.44
	26.22	11.48	67.81	-0.00	0.0620	10.79	474.8	376.54	0.0609	471.3	8.483	16.45	8.52	1.44
	27.22	11.48	67.83	-0.00	0.0620	10.81	475.6	377.06	0.0610	473.3	8.520	16.51	8.58	1.44
	28.22	11.48	67.81	0.00	0.0620	10.82	475.9	377.48	0.0610	474.3	8.537	16.55	8.61	1.44
	29.20	11.48	67.81	0.00	0.0620	10.81	475.8	377.40	0.0610	473.5	8.523	16.52	8.59	1.44
	30.22	11.50	67.81	-0.00	0.0620	10.80	475.3	377.04	0.0610	472.7	8.508	16.50	8.56	1.44
	31.22	11.50	67.78	0.00	0.0618	10.77	473.9	376.03	0.0609	472.8	8.511	16.51	8.56	1.44
	32.21	11.50	67.81	0.00	0.0618	10.76	473.5	375.60	0.0610	473.1	8.516	16.51	8.57	1.44
	33.21	11.50	67.81	0.00	0.0617	10.74	472.4	374.69	0.0611	473.9	8.531	16.54	8.60	1.44
	34.21	11.51	67.83	-0.00	0.0619	10.78	474.1	375.95	0.0612	475.3	8.555	16.58	8.64	1.44
	35.23	11.51	67.83	-0.00	0.0617	10.74	472.8	374.88	0.0612	475.7	8.563	16.60	8.66	1.44
	36.22	11.51	67.81	-0.00	0.0618	10.77	473.8	375.81	0.0614	477.5	8.594	16.66	8.71	1.44
	37.22	11.51	67.81	0.00	0.0619	10.79	474.5	376.42	0.0614	478.3	8.610	16.70	8.74	1.44
	38.20	11.53	67.82	-0.00	0.0619	10.79	474.6	376.47	0.0614	478.1	8.605	16.69	8.73	1.44
	39.22	11.54	67.83	0.00	0.0619	10.78	474.4	376.26	0.0613	478.0	8.604	16.68	8.73	1.44
	40.22	11.53	67.81	0.00	0.0619	10.78	474.4	376.30	0.0613	477.4	8.593	16.66	8.71	1.44
	41.23	11.53	67.83	-0.00	0.0619	10.78	474.3	376.14	0.0616	480.0	8.641	16.75	8.79	1.44
	42.23	11.56	67.81	-0.00	0.0617	10.76	473.6	375.74	0.0618	482.2	8.680	16.83	8.86	1.44
	43.21	11.55	67.81	-0.00	0.0617	10.73	472.1	374.51	0.0619	483.4	8.702	16.87	8.90	1.44
	44.23	11.55	67.81	-0.00	0.0617	10.74	472.8	375.05	0.0619	483.3	8.699	16.87	8.89	1.44
	45.21	11.55	67.81	-0.00	0.0616	10.72	471.8	374.28	0.0617	482.5	8.685	16.84	8.87	1.44
	46.22	11.56	67.81	0.00	0.0615	10.71	471.2	373.79	0.0616	481.0	8.658	16.79	8.82	1.44
	47.22	11.56	67.84	-0.00	0.0616	10.71	471.1	373.63	0.0617	481.6	8.669	16.81	8.84	1.44
	48.20	11.56	67.81	-0.00	0.0616	10.72	471.7	374.20	0.0617	481.7	8.670	16.81	8.84	1.44
	49.30	11.56	67.79	-0.00	0.0616	10.71	471.1	373.87	0.0616	479.6	8.633	16.75	8.78	1.44
	50.22	11.58	67.83	0.00	0.0616	10.71	471.4	373.87	0.0616	480.6	8.650	16.77	8.81	1.44
	51.22	11.58	67.81	0.00	0.0617	10.71	471.1	373.80	0.0616	480.2	8.644	16.76	8.80	1.44
	52.21	11.56	67.81	-0.00	0.0616	10.72	471.6	374.11	0.0617	480.9	8.656	16.79	8.82	1.44
	53.23	11.58	67.83	0.00	0.0617	10.73	471.9	374.30	0.0618	482.9	8.693	16.85	8.88	1.44
	54.21	11.59	67.81	0.00	0.0617	10.73	472.2	374.64	0.0619	483.1	8.696	16.87	8.89	1.44
	55.22	11.56	67.81	-0.00	0.0616	10.71	471.5	374.02	0.0619	483.3	8.699	16.87	8.89	1.44
	56.21	11.60	67.86	0.00	0.0617	10.73	472.3	374.51	0.0619	484.1	8.714	16.89	8.92	1.44
	57.24	11.59	67.81	-0.00	0.0616	10.71	471.4	374.00	0.0619	484.0	8.711	16.90	8.91	1.44
	58.22	11.59	67.81	0.00	0.0615	10.69	470.4	373.25	0.0619	484.1	8.714	16.90	8.92	1.44
	59.22	11.60	67.81	-0.00	0.0614	10.68	470.1	372.98	0.0619	483.9	8.711	16.90	8.91	1.44
	60.23	11.60	67.81	-0.00	0.0616	10.71	471.3	373.94	0.0621	486.1	8.750	16.97	8.98	1.44
	61.22	11.60	67.81	-0.00	0.0616	10.72	471.7	374.25	0.0622	487.7	8.779	17.03	9.03	1.44
	62.21	11.61	67.81	0.00	0.0617	10.73	472.1	374.62	0.0622	487.9	8.783	17.03	9.04	1.44
	63.21	11.61	67.83	-0.00	0.0615	10.72	471.8	374.20	0.0621	488.0	8.784	17.03	9.04	1.44
	64.21	11.61	67.81	0.00	0.0616	10.72	471.5	374.11	0.0621	485.8	8.745	16.96	8.97	1.44
	65.21	11.63	67.83	0.00	0.0616	10.71	471.4	373.95	0.0620	484.8	8.726	16.92	8.94	1.44
	66.22	11.64	67.81	0.00	0.0615	10.70	470.9	373.72	0.0620	485.4	8.738	16.95	8.96	1.44
	67.22	11.63	67.81	0.00	0.0615	10.69	470.5	373.38	0.0622	486.9	8.764	17.00	9.01	1.44
	68.30	11.64	67.78	-0.00	0.0615	10.70	470.7	373.68	0.0622	487.2	8.770	17.02	9.02	1.44
	69.22	11.64	67.81	-0.00	0.0615	10.69	470.4	373.30	0.0623	488.5	8.793	17.06	9.06	1.44
	70.22	11.64	67.81	0.00	0.0615	10.69	470.4	373.33	0.0624	490.1	8.823	17.12	9.10	1.44
	71.21	11.67	67.81	-0.00	0.0616	10.69	470.5	373.44	0.0624	489.2	8.805	17.08	9.08	1.44
	72.23	11.66	67.81	0.00	0.0615	10.70	470.7	373.56	0.0624	488.3	8.790	17.05	9.05	1.44
	73.23	11.66	67.81	0.00	0.0616	10.70	470.9	373.73	0.0622	487.3	8.772	17.02	9.02	1.44
	74.21	11.66	67.86	0.00	0.0615	10.70	470.9	373.42	0.0622	488.0	8.784	17.03	9.04	1.44
	75.22	11.66	67.83	0.00	0.0614	10.67	469.5	372.50	0.0623	488.2	8.788	17.04	9.05	1.44
	76.22	11.66	67.81	-0.00	0.0612	10.64	468.3	371.61	0.0625	490.8	8.834	17.14	9.12	1.44
	77.20	11.66	67.83	-0.00	0.0612	10.63	467.9	371.20	0.0626	490.8	8.834	17.13	9.12	1.44
	78.22	11.66	67.83	-0.00	0.0613	10.63	467.7	371.02	0.0626	490.4	8.826	17.12	9.11	1.44
	79.20	11.66	67.81	0.00	0.0613	10.64	468.3	371.66	0.0627	492.4	8.863	17.19	9.17	1.44
	80.28	11.64	67.81	0.00	0.0614	10.66	469.1	372.26	0.0626	491.0	8.837	17.14	9.13	1.44
	81.20	11.69	67.81	0.00	0.0613	10.64	468.2	371.62	0.0626	493.5	8.884	17.24	9.21	1.44
	82.21	11.68	67.83	0.00	0.0613	10.65	468.7	371.87	0.0624	487.0	8.766	17.00	9.01	1.44
	83.21	11.67	67.81	-0.00	0.0614	10.65	468.5	371.86	0.0615	481.2	8.662	16.81	8.83	1.44
	84.22	11.69	67.79	0.00	0.0615	10.67	469.5	372.78	0.0609	475.8	8.564	16.62	8.67	1.44
	85.22	11.69	67.81	-0.00	0.0615	10.68	469.9	372.95	0.0614	475.2	8.553	16.60	8.65	1.44
	86.22	11.69	67.81	0.00	0.0613	10.66	469.2	372.45	0.0618	483.6	8.705	16.89	8.91	1.44
	87.22	11.69	67.81	0.00	0.0614	10.66	469.1	372.28	0.0616	482.0	8.676	16.83	8.86	1.44
	88.20	11.71	67.81	-0.00	0.0613	10.65	468.6	371.91	0.0618	482.9	8.693	16.87	8.89	1.44
	89.22	11.71	67.83	-0.00	0.0614	10.65	468.6	371.87	0.0616	479.4	8.629	16.74	8.78	1.44
	90.22	11.71	67.81	0.00	0.0614	10.66	469.2	372.43	0.0617	480.4	8.648	16.78	8.81	1.44
	91.23	11.71	67.81	-0.00	0.0614	10.66	469.0	372.25	0.0618	481.8	8.672	16.83	8.85	1.44
	92.21	11.74	67.81	0.00	0.0614	10.68	469.9	373.00	0.0619	483.2	8.697	16.88	8.90	1.44
	93.23	11.72	67.81	0.00	0.0613	10.66	468.9	372.22	0.0620	484.7	8.725	16.93	8.94	1.44
	94.22	11.72	67.78	-0.00	0.0614	10.67	469.5	372.84	0.0621	485.6	8.741	16.97	8.97	1.44
	95.22	11.72	67.81	0.00	0.0614	10.67	469.3	372.53	0.0621	485.3	8.736	16.95	8.96	1.44
	96.28	11.74	67.81	0.00	0.0614	10.67	469.5	372.73	0.0622	485.9	8.747	16.97	8.98	1.44
	97.20	11.74	67.78	0.00	0.0613	10.65	468.5	372.08	0.0620	484.9	8.729	16.94	8.95	1.44
	98.22	11.75	67.81	0.00	0.0611	10.62	467.3	371.02	0.0618	482.8	8.690	16.86	8.89	1.45
	99.20	11.76	67.81	-0.00	0.0612	10.62	467.2	370.86	0.0620	484.0	8.711	16.91	8.92	1.44
	100.22	11.74	67.81	0.00	0.0612	10.63	467.9	371.41	0.0621	485.9	8.747	16.97	8.98	1.44
	101.21	11.75	67.84	-0.00	0.0614	10.66	468.9	372.14	0.0620	484.1	8.715	16.90	8.93	1.44
	102.21	11.77	67.81	-0.00	0.0613	10.66	468.9	372.28	0.0617	483.0	8.695	16.87	8.90	1.45
	103.23	11.75	67.81	-0.00	0.0614	10.66	469.1	372.44	0.0616	480.3	8.645	16.78	8.81	1.44
	104.24	11.80	67.81	-0.00	0.0614	10.67	469.5	372.80	0.0616	480.5	8.648	16.79	8.82	1.44
	105.22	11.78	67.83	0.00	0.0615	10.69	470.4	373.34	0.0617	480.8	8.655	16.79	8.83	1.44
	106.22	11.77	67.81	0.00	0.0615	10.69	470.4	373.42	0.0617	481.2	8.661	16.81	8.84	1.44
	107.22	11.77	67.84	0.00	0.0613	10.66	469.0	372.17	0.0617	480.9	8.656	16.79	8.83	1.44
	108.30	11.77	67.83	-0.00	0.0613	10.65	468.8	372.04	0.0617	481.2	8.662	16.80	8.84	1.45
	109.22	11.82	67.81	0.00	0.0613	10.63	467.9	371.56	0.0616	480.6	8.650	16.79	8.82	1.45
	110.21	11.77	67.81	-0.00	0.0613	10.65	468.8	372.19	0.0622	487.2	8.770	17.02	9.02	1.44
	111.21	11.80	67.81	0.00	0.0613	10.64	468.2	371.73	0.0622	486.5	8.758	17.00	9.00	1.44
	112.21	11.80	67.81	0.00	0.0612	10.64	468.0	371.58	0.0620	483.9	8.711	16.91	8.92	1.44
	113.21	11.80	67.81	0.00	0.0612	10.63	467.5	371.25	0.0619	483.9	8.710	16.91	8.92	1.44
	114.22	11.82	67.81	-0.00	0.0612	10.61	467.0	370.86	0.0617	481.9	8.674	16.84	8.86	1.45
	115.22	11.81	67.81	0.00	0.0613	10.65	468.5	372.03	0.0620	484.7	8.725	16.93	8.95	1.45
	116.22	11.80	67.83	-0.00	0.0613	10.64	468.1	371.58	0.0620	484.1	8.714	16.91	8.93	1.44
	117.20	11.82	67.81	0.00	0.0613	10.66	468.9	372.31	0.0622	487.0	8.765	17.01	9.02	1.44
	118.22	11.82	67.81	-0.00	0.0613	10.66	468.9	372.30	0.0622	487.1	8.768	17.02	9.02	1.44
	119.22	11.82	67.81	-0.00	0.0613	10.63	467.5	371.23	0.0621	485.4	8.737	16.96	8.97	1.44
	120.23	11.82	67.81	0.00	0.0612	10.60	466.6	370.51	0.0623	487.3	8.772	17.03	9.03	1.45
	121.23	11.82	67.81	0.00	0.0611	10.61	466.9	370.77	0.0623	489.2	8.806	17.09	9.09	1.45
	122.23	11.84	67.83	-0.00	0.0612	10.62	467.3	370.96	0.0623	488.4	8.791	17.06	9.06	1.44
	123.21	11.85	67.81	0.00	0.0612	10.62	467.4	371.20	0.0623	488.4	8.790	17.06	9.06	1.45
	124.21	11.85	67.79	0.00	0.0609	10.56	464.7	369.20	0.0625	489.3	8.807	17.10	9.09	1.44
	125.21	11.88	67.83	0.00	0.0610	10.59	465.9	369.94	0.0620	485.3	8.735	16.95	8.97	1.45
