Jul 25 2015 at 13:50:55
Frequency: 1.00Hz.
CO2
Zero:  Value:0.95  Date:18 Mar 2005	 at 07:22:33	
Span:  Value:1.00  Date:18 Mar 2005	 at 07:25:09	
H2O
Zero:  Value:0.71  Date:18 Mar 2005	 at 07:52:31	
Span:  Value:0.99  Date:18 Mar 2005	 at 11:44:01	
	Relative Time	Temperature	Pressure	Aux Input	CO2 Absorptance	CO2 mmol/m3	CO2 mg/m3	CO2 umol/mol	H2O Absorptance	H2O mmol/m3	H2O g/m3	H2O mmol/mol	H2O(°C)	Cooler Voltage
	0.14	32.95	70.23	-0.00	0.0607	10.42	458.5	377.59	0.0807	708.0	12.745	25.66	15.80	1.74
	1.14	32.93	70.23	0.00	0.0610	10.48	460.9	379.60	0.0800	694.4	12.499	25.16	15.50	1.75
	2.15	32.91	70.25	-0.00	0.0612	10.52	462.9	381.10	0.0789	685.6	12.340	24.83	15.30	1.75
	3.13	32.91	70.23	0.00	0.0613	10.57	465.0	382.90	0.0768	653.4	11.761	23.67	14.55	1.75
	4.13	32.94	70.23	0.00	0.0615	10.57	465.3	383.19	0.0759	649.3	11.687	23.53	14.46	1.75
	5.15	32.89	70.20	0.00	0.0615	10.58	465.6	383.51	0.0769	652.6	11.747	23.65	14.53	1.75
	6.15	32.87	70.25	0.00	0.0611	10.53	463.2	381.22	0.0806	686.2	12.352	24.85	15.31	1.74
	7.21	32.85	70.25	0.00	0.0613	10.53	463.3	381.29	0.0810	708.7	12.756	25.66	15.81	1.74
	8.14	32.85	70.20	0.00	0.0616	10.57	464.9	382.92	0.0798	697.9	12.562	25.29	15.57	1.75
	9.14	32.83	70.25	0.00	0.0616	10.63	467.9	385.04	0.0787	677.4	12.193	24.53	15.11	1.75
	10.14	32.79	70.23	0.00	0.0616	10.60	466.2	383.74	0.0779	670.3	12.066	24.28	14.94	1.75
	11.20	32.77	70.25	0.00	0.0617	10.64	468.1	385.16	0.0759	643.2	11.578	23.29	14.30	1.75
	12.14	32.75	70.25	0.00	0.0618	10.65	468.4	385.40	0.0770	653.3	11.759	23.65	14.54	1.75
	13.15	32.76	70.25	0.00	0.0619	10.66	469.1	385.93	0.0750	635.1	11.432	22.99	14.10	1.75
	14.15	32.71	70.25	-0.00	0.0619	10.67	469.5	386.28	0.0750	633.4	11.401	22.93	14.06	1.75
	15.15	32.66	70.25	-0.00	0.0618	10.65	468.7	385.53	0.0740	622.9	11.212	22.54	13.80	1.75
	16.13	32.69	70.23	0.00	0.0617	10.63	467.5	384.71	0.0732	615.4	11.078	22.28	13.62	1.75
	17.14	32.69	70.25	-0.00	0.0617	10.63	467.7	384.76	0.0727	601.2	10.821	21.76	13.26	1.75
	18.13	32.72	70.23	0.00	0.0611	10.50	462.2	380.34	0.0746	622.6	11.207	22.54	13.80	1.75
	19.20	32.67	70.23	0.00	0.0613	10.53	463.5	381.36	0.0750	629.3	11.327	22.78	13.96	1.75
	20.16	32.67	70.23	-0.00	0.0611	10.52	463.0	380.91	0.0754	632.8	11.391	22.91	14.04	1.75
	21.14	32.69	70.23	0.00	0.0609	10.47	460.7	379.11	0.0761	644.3	11.598	23.33	14.32	1.75
	22.14	32.65	70.23	0.00	0.0612	10.50	462.1	380.20	0.0756	639.9	11.518	23.17	14.22	1.75
	23.14	32.63	70.25	0.00	0.0611	10.49	461.4	379.50	0.0761	643.7	11.587	23.29	14.31	1.75
	24.13	32.63	70.23	0.00	0.0609	10.47	460.5	378.85	0.0768	651.4	11.726	23.58	14.49	1.75
	25.15	32.62	70.25	0.00	0.0609	10.46	460.1	378.42	0.0767	650.7	11.713	23.55	14.47	1.75
	26.13	32.60	70.25	0.00	0.0610	10.48	460.9	379.07	0.0758	639.5	11.510	23.14	14.20	1.75
	27.13	32.60	70.23	0.00	0.0613	10.53	463.3	381.16	0.0738	622.8	11.210	22.54	13.80	1.75
	28.13	32.58	70.23	0.00	0.0617	10.62	467.3	384.43	0.0722	596.6	10.739	21.59	13.13	1.75
	29.14	32.60	70.25	-0.00	0.0619	10.65	468.8	385.54	0.0719	591.9	10.655	21.42	13.02	1.75
	30.16	32.59	70.25	0.00	0.0625	10.79	474.9	390.49	0.0720	591.7	10.650	21.41	13.01	1.75
	31.14	32.56	70.23	0.00	0.0623	10.76	473.5	389.44	0.0721	594.5	10.702	21.52	13.08	1.75
	32.15	32.60	70.25	-0.00	0.0621	10.72	471.5	387.73	0.0725	599.6	10.792	21.70	13.21	1.75
	33.15	32.56	70.25	-0.00	0.0619	10.69	470.3	386.74	0.0722	595.6	10.720	21.55	13.11	1.75
	34.15	32.56	70.26	-0.00	0.0621	10.67	469.5	386.00	0.0722	594.8	10.707	21.52	13.09	1.75
	35.15	32.58	70.25	-0.00	0.0622	10.75	473.1	389.08	0.0723	597.4	10.753	21.61	13.16	1.75
	36.15	32.58	70.20	0.00	0.0628	10.85	477.4	392.87	0.0719	592.6	10.666	21.45	13.03	1.75
	37.14	32.60	70.28	-0.00	0.0628	10.87	478.2	393.10	0.0718	589.6	10.612	21.33	12.96	1.75
	38.14	32.60	70.20	-0.00	0.0622	10.75	472.9	389.16	0.0720	593.4	10.681	21.49	13.05	1.75
	39.12	32.63	70.25	0.00	0.0618	10.66	469.2	385.90	0.0721	594.6	10.702	21.52	13.09	1.75
	40.14	32.65	70.23	0.00	0.0614	10.57	465.3	382.82	0.0731	606.2	10.912	21.95	13.38	1.75
	41.14	32.65	70.25	0.00	0.0613	10.54	463.8	381.46	0.0731	607.5	10.935	21.98	13.42	1.75
	42.12	32.62	70.20	0.00	0.0615	10.57	465.1	382.77	0.0730	605.5	10.900	21.93	13.37	1.75
	43.15	32.65	70.23	-0.00	0.0623	10.74	472.5	388.71	0.0724	598.6	10.774	21.67	13.19	1.75
	44.12	32.67	70.25	0.00	0.0629	10.86	477.8	392.98	0.0718	592.9	10.673	21.46	13.04	1.75
	45.15	32.68	70.25	0.00	0.0631	10.94	481.3	395.93	0.0715	587.7	10.579	21.27	12.91	1.75
	46.15	32.73	70.23	-0.00	0.0630	10.92	480.5	395.48	0.0717	590.2	10.623	21.37	12.98	1.75
	47.14	32.69	70.23	0.00	0.0626	10.86	477.9	393.23	0.0717	589.4	10.609	21.34	12.95	1.75
	48.14	32.73	70.23	-0.00	0.0623	10.77	473.8	389.93	0.0719	591.3	10.644	21.41	13.01	1.75
	49.16	32.73	70.25	-0.00	0.0625	10.79	474.7	390.51	0.0718	590.8	10.635	21.39	12.99	1.75
	50.12	32.70	70.23	0.00	0.0624	10.79	474.7	390.60	0.0718	591.5	10.647	21.42	13.01	1.75
	51.15	32.73	70.25	-0.00	0.0622	10.74	472.8	388.95	0.0717	590.2	10.623	21.36	12.98	1.75
	52.15	32.71	70.23	-0.00	0.0624	10.75	472.8	389.12	0.0721	593.9	10.690	21.50	13.07	1.75
	53.13	32.71	70.25	0.00	0.0625	10.80	475.0	390.79	0.0722	594.9	10.709	21.54	13.10	1.75
	54.13	32.74	70.23	0.00	0.0630	10.91	480.0	395.06	0.0717	589.6	10.613	21.35	12.96	1.75
	55.13	32.71	70.25	0.00	0.0630	10.94	481.4	396.03	0.0719	590.4	10.627	21.37	12.98	1.75
	56.14	32.72	70.20	0.00	0.0631	10.94	481.3	396.24	0.0715	587.8	10.580	21.29	12.91	1.76
	57.13	32.76	70.25	0.00	0.0630	10.92	480.6	395.42	0.0713	585.8	10.545	21.21	12.87	1.75
	58.14	32.73	70.25	-0.00	0.0623	10.76	473.6	389.61	0.0715	586.0	10.549	21.21	12.87	1.76
	59.14	32.75	70.25	0.00	0.0622	10.72	471.9	388.26	0.0716	587.7	10.579	21.28	12.91	1.75
	60.14	32.75	70.23	-0.00	0.0623	10.77	473.8	389.96	0.0718	589.6	10.613	21.35	12.96	1.76
	61.15	32.76	70.23	0.00	0.0627	10.85	477.5	393.02	0.0719	591.5	10.647	21.42	13.01	1.76
	62.13	32.75	70.23	0.00	0.0624	10.81	475.6	391.42	0.0713	586.2	10.552	21.23	12.87	1.76
	63.15	32.78	70.25	-0.00	0.0623	10.74	472.6	388.91	0.0716	586.8	10.562	21.25	12.89	1.76
	64.15	32.81	70.23	-0.00	0.0626	10.80	475.4	391.36	0.0719	591.5	10.648	21.43	13.02	1.76
	65.15	32.81	70.25	0.00	0.0625	10.82	475.9	391.63	0.0719	592.9	10.672	21.47	13.05	1.76
	66.13	32.82	70.25	0.00	0.0624	10.77	474.1	390.13	0.0719	592.4	10.663	21.45	13.04	1.76
	67.14	32.82	70.23	-0.00	0.0622	10.74	472.5	389.01	0.0720	594.0	10.692	21.52	13.08	1.76
	68.14	32.81	70.23	0.00	0.0623	10.75	472.9	389.31	0.0721	593.7	10.687	21.51	13.07	1.76
	69.14	32.85	70.23	-0.00	0.0622	10.75	473.1	389.47	0.0721	595.6	10.720	21.57	13.12	1.76
	70.14	32.82	70.23	0.00	0.0623	10.75	473.2	389.56	0.0725	598.3	10.770	21.67	13.19	1.76
	71.12	32.82	70.23	0.00	0.0626	10.80	475.3	391.25	0.0732	606.4	10.914	21.96	13.40	1.76
	72.13	32.77	70.25	0.00	0.0626	10.83	476.4	391.95	0.0732	607.2	10.930	21.98	13.42	1.76
	73.12	32.77	70.23	0.00	0.0621	10.73	472.0	388.52	0.0724	601.1	10.820	21.77	13.26	1.76
	74.15	32.76	70.23	-0.00	0.0623	10.75	473.1	389.42	0.0730	603.6	10.865	21.86	13.32	1.76
	75.11	32.77	70.23	0.00	0.0621	10.73	472.2	388.65	0.0727	603.2	10.858	21.85	13.31	1.76
	76.16	32.78	70.25	-0.00	0.0621	10.71	471.5	387.93	0.0719	592.0	10.657	21.43	13.03	1.76
	77.14	32.76	70.28	0.00	0.0622	10.73	472.0	388.23	0.0720	592.4	10.664	21.44	13.04	1.76
	78.14	32.73	70.20	0.00	0.0622	10.73	472.0	388.63	0.0721	593.1	10.676	21.49	13.05	1.76
	79.14	32.73	70.23	0.00	0.0624	10.79	474.6	390.63	0.0728	602.2	10.839	21.81	13.29	1.77
	80.14	32.73	70.25	0.00	0.0622	10.76	473.3	389.42	0.0729	605.9	10.906	21.93	13.38	1.76
	81.14	32.78	70.23	0.00	0.0622	10.72	471.7	388.27	0.0728	604.0	10.872	21.87	13.33	1.76
	82.21	32.76	70.25	-0.00	0.0620	10.69	470.2	386.90	0.0726	602.1	10.837	21.80	13.28	1.76
	83.15	32.77	70.23	-0.00	0.0625	10.78	474.1	390.26	0.0735	610.0	10.981	22.09	13.49	1.76
	84.22	32.81	70.23	-0.00	0.0623	10.77	473.8	390.05	0.0733	610.9	10.996	22.13	13.51	1.76
	85.14	32.81	70.23	-0.00	0.0621	10.72	471.6	388.25	0.0727	602.1	10.838	21.81	13.29	1.77
	86.16	32.81	70.20	-0.00	0.0624	10.78	474.2	390.54	0.0732	608.5	10.954	22.05	13.45	1.76
	87.13	32.81	70.23	0.00	0.0623	10.77	473.8	390.08	0.0731	606.3	10.914	21.96	13.39	1.76
	88.14	32.81	70.23	-0.00	0.0623	10.75	473.1	389.45	0.0734	608.2	10.947	22.03	13.44	1.76
	89.14	32.81	70.23	0.00	0.0621	10.71	471.3	387.96	0.0727	603.3	10.860	21.85	13.32	1.77
	90.14	32.78	70.25	0.00	0.0622	10.72	471.7	388.15	0.0725	599.8	10.797	21.72	13.23	1.77
	91.12	32.80	70.23	0.00	0.0622	10.73	472.2	388.70	0.0728	602.8	10.850	21.83	13.30	1.77
	92.13	32.77	70.20	0.00	0.0623	10.76	473.5	389.84	0.0734	609.0	10.962	22.06	13.46	1.76
	93.15	32.82	70.23	-0.00	0.0624	10.77	473.9	390.16	0.0736	613.0	11.035	22.21	13.56	1.77
	94.15	32.84	70.23	-0.00	0.0623	10.77	473.7	389.98	0.0735	611.5	11.007	22.15	13.53	1.77
	95.13	32.79	70.23	0.00	0.0624	10.77	474.0	390.15	0.0738	614.4	11.059	22.25	13.60	1.77
	96.14	32.83	70.23	0.00	0.0621	10.72	471.8	388.41	0.0733	611.1	10.999	22.13	13.51	1.77
	97.14	32.87	70.25	0.00	0.0622	10.72	471.6	388.19	0.0734	608.7	10.957	22.04	13.46	1.77
	98.14	32.83	70.23	-0.00	0.0623	10.75	472.8	389.24	0.0740	614.7	11.065	22.27	13.61	1.77
	99.14	32.88	70.25	0.00	0.0626	10.80	475.4	391.31	0.0749	627.8	11.301	22.74	13.93	1.77
	100.14	32.90	70.25	-0.00	0.0626	10.81	475.5	391.44	0.0746	624.9	11.248	22.63	13.86	1.77
	101.14	32.87	70.23	0.00	0.0625	10.82	476.0	391.93	0.0745	624.1	11.233	22.61	13.84	1.77
	102.12	32.89	70.25	0.00	0.0624	10.79	474.8	390.83	0.0744	623.7	11.227	22.59	13.83	1.77
	103.15	32.93	70.20	-0.00	0.0623	10.76	473.5	390.09	0.0739	617.7	11.118	22.39	13.69	1.77
	104.13	32.91	70.25	-0.00	0.0623	10.76	473.5	389.82	0.0741	618.0	11.123	22.38	13.69	1.77
	105.14	32.96	70.26	-0.00	0.0622	10.75	472.8	389.27	0.0737	614.6	11.062	22.26	13.61	1.77
	106.13	32.91	70.20	0.00	0.0625	10.80	475.2	391.46	0.0744	620.6	11.170	22.49	13.76	1.77
	107.13	32.88	70.21	0.00	0.0628	10.86	477.9	393.66	0.0751	629.7	11.334	22.82	13.98	1.77
	108.14	32.96	70.25	0.00	0.0627	10.85	477.6	393.20	0.0750	631.2	11.362	22.87	14.02	1.77
	109.14	32.95	70.25	0.00	0.0625	10.80	475.4	391.38	0.0746	626.1	11.269	22.68	13.89	1.77
	110.15	32.95	70.23	-0.00	0.0623	10.76	473.6	390.01	0.0744	621.9	11.194	22.54	13.79	1.77
	111.14	33.00	70.23	0.00	0.0628	10.86	477.8	393.57	0.0758	638.5	11.493	23.14	14.20	1.77
	112.15	32.98	70.20	-0.00	0.0624	10.80	475.1	391.44	0.0750	630.7	11.352	22.86	14.01	1.77
	113.13	32.98	70.28	0.00	0.0623	10.75	472.8	389.15	0.0742	621.6	11.188	22.51	13.78	1.78
	114.13	33.00	70.25	0.00	0.0624	10.78	474.2	390.48	0.0744	622.7	11.209	22.56	13.81	1.77
	115.16	33.02	70.25	-0.00	0.0624	10.78	474.1	390.44	0.0746	624.7	11.244	22.63	13.86	1.77
	116.13	33.00	70.25	0.00	0.0623	10.76	473.5	389.85	0.0744	622.5	11.205	22.55	13.81	1.77
	117.22	33.02	70.23	-0.00	0.0622	10.75	472.9	389.55	0.0742	620.9	11.175	22.50	13.77	1.77
	118.12	33.02	70.23	0.00	0.0623	10.77	473.8	390.29	0.0745	623.0	11.214	22.58	13.82	1.77
	119.14	33.04	70.23	-0.00	0.0624	10.79	474.6	391.00	0.0748	627.0	11.285	22.73	13.92	1.78
	120.14	33.05	70.25	0.00	0.0626	10.82	476.2	392.19	0.0751	630.6	11.352	22.85	14.01	1.77
	121.15	33.04	70.23	0.00	0.0626	10.84	477.1	393.08	0.0755	637.2	11.470	23.10	14.17	1.77
	122.15	33.04	70.25	0.00	0.0623	10.77	474.0	390.38	0.0751	630.4	11.348	22.84	14.01	1.78
	123.15	33.09	70.25	0.00	0.0626	10.83	476.7	392.62	0.0754	636.6	11.460	23.07	14.16	1.78
