Jul 25 2015 at 10:07:29
Frequency: 1.00Hz.
CO2
Zero:  Value:0.95  Date:18 Mar 2005	 at 07:22:33	
Span:  Value:1.00  Date:18 Mar 2005	 at 07:25:09	
H2O
Zero:  Value:0.71  Date:18 Mar 2005	 at 07:52:31	
Span:  Value:0.99  Date:18 Mar 2005	 at 11:44:01	
	Relative Time	Temperature	Pressure	Aux Input	CO2 Absorptance	CO2 mmol/m3	CO2 mg/m3	CO2 umol/mol	H2O Absorptance	H2O mmol/m3	H2O g/m3	H2O mmol/mol	H2O(°C)	Cooler Voltage
	0.58	19.96	67.83	-0.00	0.0630	11.02	485.1	396.06	0.0510	367.6	6.618	13.21	5.33	1.46
	1.59	19.96	67.81	-0.00	0.0629	11.00	484.0	395.31	0.0511	368.5	6.634	13.25	5.36	1.46
	2.57	19.98	67.83	-0.00	0.0629	11.00	484.0	395.16	0.0512	370.5	6.669	13.31	5.44	1.46
	3.59	19.98	67.81	0.00	0.0628	10.99	483.5	394.91	0.0514	372.9	6.712	13.40	5.53	1.46
	4.59	19.98	67.81	0.00	0.0629	10.99	483.6	394.99	0.0516	373.3	6.720	13.42	5.55	1.46
	5.57	19.96	67.83	0.00	0.0628	11.00	484.1	395.24	0.0519	376.6	6.779	13.53	5.67	1.46
	6.66	19.93	67.81	-0.00	0.0628	10.98	483.3	394.74	0.0517	374.8	6.747	13.47	5.60	1.46
	7.57	19.91	67.81	0.00	0.0627	10.96	482.3	393.85	0.0516	375.0	6.749	13.47	5.61	1.46
	8.58	19.90	67.81	0.00	0.0626	10.92	480.5	392.38	0.0513	371.5	6.687	13.35	5.47	1.46
	9.58	19.85	67.81	-0.00	0.0626	10.97	482.5	393.96	0.0512	372.0	6.696	13.36	5.49	1.46
	10.58	19.80	67.83	0.00	0.0624	10.92	480.6	392.21	0.0509	367.5	6.615	13.20	5.31	1.46
	11.65	19.75	67.81	0.00	0.0625	10.90	479.5	391.32	0.0509	366.9	6.604	13.18	5.29	1.46
	12.59	19.71	67.81	-0.00	0.0624	10.91	479.9	391.65	0.0507	365.3	6.575	13.12	5.22	1.46
	13.59	19.68	67.83	0.00	0.0624	10.90	479.8	391.35	0.0507	365.1	6.572	13.10	5.21	1.46
	14.59	19.68	67.78	-0.00	0.0626	10.91	480.1	391.94	0.0504	364.3	6.558	13.09	5.18	1.46
	15.57	19.68	67.81	-0.00	0.0624	10.91	480.1	391.77	0.0507	365.4	6.577	13.12	5.22	1.46
	16.58	19.68	67.83	-0.00	0.0625	10.91	480.2	391.65	0.0511	368.9	6.640	13.24	5.36	1.46
	17.57	19.68	67.83	0.00	0.0624	10.91	480.2	391.66	0.0513	370.5	6.669	13.30	5.42	1.46
	18.66	19.66	67.81	0.00	0.0624	10.90	479.6	391.35	0.0509	367.7	6.618	13.20	5.31	1.46
	19.59	19.64	67.81	-0.00	0.0623	10.89	479.0	390.82	0.0508	366.9	6.604	13.17	5.28	1.46
	20.58	19.68	67.81	0.00	0.0624	10.88	478.8	390.75	0.0508	366.2	6.591	13.15	5.25	1.46
	21.59	19.71	67.81	0.00	0.0623	10.87	478.1	390.20	0.0509	367.5	6.615	13.20	5.31	1.46
	22.59	19.76	67.81	-0.00	0.0622	10.86	478.0	390.15	0.0509	366.3	6.593	13.15	5.26	1.46
	23.59	19.71	67.81	-0.00	0.0622	10.86	477.9	390.01	0.0509	366.3	6.594	13.15	5.26	1.46
	24.57	19.73	67.81	0.00	0.0623	10.86	478.0	390.16	0.0511	368.1	6.626	13.22	5.33	1.46
	25.58	19.71	67.83	0.00	0.0624	10.88	478.7	390.50	0.0511	369.4	6.650	13.26	5.38	1.46
	26.57	19.73	67.81	0.00	0.0623	10.87	478.4	390.44	0.0513	370.8	6.674	13.31	5.44	1.46
	27.58	19.73	67.81	-0.00	0.0623	10.87	478.2	390.28	0.0516	373.7	6.726	13.42	5.55	1.46
	28.58	19.73	67.81	0.00	0.0622	10.86	477.8	389.95	0.0519	376.3	6.773	13.51	5.65	1.46
	29.58	19.73	67.81	0.00	0.0622	10.85	477.6	389.82	0.0520	377.2	6.790	13.55	5.68	1.46
	30.56	19.71	67.83	0.00	0.0622	10.85	477.5	389.51	0.0520	378.3	6.810	13.58	5.73	1.46
	31.59	19.70	67.81	0.00	0.0622	10.86	477.6	389.79	0.0518	376.9	6.784	13.53	5.67	1.46
	32.59	19.68	67.81	0.00	0.0622	10.85	477.3	389.46	0.0517	375.2	6.753	13.47	5.60	1.46
	33.59	19.66	67.78	0.00	0.0622	10.86	477.8	390.04	0.0520	377.6	6.797	13.56	5.69	1.46
	34.65	19.66	67.81	0.00	0.0622	10.85	477.5	389.62	0.0518	375.9	6.767	13.50	5.63	1.46
	35.58	19.63	67.80	-0.00	0.0622	10.85	477.5	389.64	0.0515	373.2	6.717	13.40	5.52	1.46
	36.58	19.60	67.83	0.00	0.0622	10.85	477.2	389.21	0.0514	372.9	6.712	13.38	5.51	1.46
	37.56	19.58	67.81	0.00	0.0622	10.85	477.5	389.53	0.0513	371.9	6.695	13.35	5.47	1.46
	38.59	19.58	67.81	-0.00	0.0622	10.84	477.1	389.22	0.0514	371.9	6.695	13.35	5.47	1.46
	39.56	19.58	67.81	0.00	0.0622	10.85	477.4	389.44	0.0514	371.4	6.686	13.33	5.45	1.46
	40.58	19.58	67.81	0.00	0.0622	10.84	477.1	389.21	0.0516	372.8	6.711	13.38	5.51	1.46
	41.57	19.56	67.81	0.00	0.0622	10.85	477.3	389.32	0.0517	374.2	6.735	13.43	5.56	1.46
	42.57	19.58	67.83	0.00	0.0621	10.84	477.0	388.94	0.0517	375.4	6.757	13.47	5.61	1.46
	43.57	19.58	67.81	-0.00	0.0621	10.83	476.7	388.89	0.0519	377.0	6.786	13.53	5.67	1.46
	44.57	19.58	67.81	0.00	0.0621	10.83	476.5	388.69	0.0520	378.1	6.806	13.57	5.71	1.46
	45.57	19.61	67.78	0.00	0.0621	10.82	476.1	388.55	0.0521	378.8	6.818	13.60	5.74	1.46
	46.57	19.60	67.81	0.00	0.0620	10.81	475.7	388.05	0.0522	379.5	6.832	13.62	5.77	1.46
	47.58	19.60	67.81	0.00	0.0621	10.82	475.9	388.26	0.0522	379.6	6.832	13.62	5.77	1.46
	48.56	19.58	67.81	0.00	0.0621	10.82	476.2	388.45	0.0521	379.7	6.835	13.63	5.77	1.46
	49.58	19.58	67.81	0.00	0.0621	10.83	476.5	388.67	0.0522	379.7	6.834	13.63	5.77	1.46
	50.58	19.58	67.81	-0.00	0.0621	10.84	476.8	388.92	0.0522	380.0	6.840	13.64	5.78	1.46
	51.57	19.61	67.81	-0.00	0.0621	10.84	477.0	389.13	0.0522	380.5	6.849	13.66	5.80	1.46
	52.59	19.59	67.81	-0.00	0.0621	10.84	476.8	388.94	0.0522	379.8	6.836	13.63	5.78	1.46
	53.59	19.51	67.83	-0.00	0.0621	10.84	476.9	388.81	0.0522	380.2	6.844	13.64	5.79	1.46
	54.59	19.46	67.81	0.00	0.0621	10.84	476.8	388.82	0.0523	381.3	6.863	13.68	5.82	1.46
	55.58	19.43	67.81	-0.00	0.0622	10.85	477.2	389.09	0.0524	382.5	6.884	13.72	5.87	1.46
	56.57	19.48	67.83	0.00	0.0622	10.85	477.5	389.21	0.0525	383.0	6.894	13.74	5.89	1.46
	57.58	19.50	67.80	-0.00	0.0622	10.86	477.7	389.56	0.0527	384.2	6.916	13.79	5.94	1.46
	58.56	19.53	67.83	0.00	0.0622	10.85	477.6	389.36	0.0527	384.9	6.929	13.81	5.97	1.46
	59.59	19.58	67.83	0.00	0.0622	10.85	477.4	389.31	0.0528	385.7	6.943	13.84	6.00	1.46
	60.59	19.56	67.81	-0.00	0.0622	10.85	477.3	389.36	0.0528	386.5	6.957	13.87	6.03	1.46
	61.59	19.53	67.81	0.00	0.0622	10.84	476.9	388.91	0.0527	385.0	6.931	13.82	5.97	1.46
	62.59	19.53	67.81	-0.00	0.0621	10.82	476.3	388.43	0.0525	383.4	6.902	13.76	5.91	1.46
	63.59	19.50	67.80	0.00	0.0620	10.82	476.0	388.21	0.0525	382.3	6.882	13.72	5.87	1.46
	64.57	19.49	67.86	0.00	0.0620	10.82	475.9	387.76	0.0524	381.9	6.874	13.69	5.85	1.46
	65.57	19.48	67.83	0.00	0.0621	10.82	476.2	388.19	0.0525	382.6	6.886	13.72	5.88	1.46
	66.66	19.46	67.81	-0.00	0.0621	10.83	476.6	388.61	0.0526	384.2	6.915	13.78	5.94	1.46
	67.58	19.48	67.83	-0.00	0.0621	10.84	477.1	388.88	0.0526	384.5	6.921	13.79	5.95	1.46
	68.66	19.48	67.83	-0.00	0.0622	10.85	477.3	389.04	0.0526	384.4	6.919	13.79	5.94	1.46
	69.58	19.50	67.81	-0.00	0.0622	10.85	477.2	389.16	0.0526	384.2	6.916	13.79	5.94	1.46
	70.58	19.53	67.81	0.00	0.0622	10.84	477.1	389.11	0.0525	384.2	6.916	13.79	5.94	1.47
	71.65	19.56	67.81	0.00	0.0622	10.85	477.3	389.30	0.0526	384.3	6.918	13.79	5.95	1.46
	72.59	19.63	67.81	0.00	0.0622	10.86	477.7	389.72	0.0530	387.5	6.975	13.91	6.07	1.47
	73.59	19.63	67.81	0.00	0.0623	10.87	478.1	390.06	0.0534	391.9	7.053	14.07	6.23	1.47
	74.60	19.65	67.81	-0.00	0.0622	10.87	478.1	390.11	0.0537	395.0	7.111	14.18	6.35	1.46
	75.58	19.58	67.78	-0.00	0.0622	10.85	477.4	389.55	0.0537	395.5	7.119	14.20	6.36	1.47
	76.58	19.56	67.83	0.00	0.0621	10.83	476.7	388.68	0.0535	394.1	7.093	14.14	6.31	1.47
	77.59	19.56	67.81	-0.00	0.0621	10.83	476.6	388.73	0.0534	392.5	7.066	14.09	6.25	1.47
	78.58	19.56	67.81	0.00	0.0622	10.84	477.1	389.14	0.0535	393.5	7.083	14.12	6.29	1.47
	79.58	19.63	67.83	0.00	0.0622	10.84	477.0	389.01	0.0534	392.3	7.061	14.08	6.25	1.47
	80.59	19.61	67.81	-0.00	0.0622	10.84	477.0	389.16	0.0534	392.1	7.058	14.08	6.24	1.46
	81.57	19.59	67.83	0.00	0.0622	10.85	477.4	389.28	0.0535	393.0	7.074	14.10	6.27	1.47
	82.57	19.63	67.86	0.00	0.0623	10.86	477.8	389.52	0.0535	393.9	7.091	14.13	6.31	1.47
	83.58	19.63	67.81	-0.00	0.0623	10.87	478.1	390.04	0.0537	394.9	7.108	14.18	6.34	1.47
	84.65	19.63	67.78	-0.00	0.0623	10.87	478.3	390.34	0.0539	396.9	7.144	14.25	6.41	1.47
	85.57	19.61	67.81	0.00	0.0624	10.88	478.5	390.42	0.0542	400.8	7.215	14.39	6.56	1.47
	86.58	19.63	67.81	0.00	0.0623	10.88	478.7	390.54	0.0543	401.5	7.227	14.41	6.58	1.47
	87.59	19.68	67.81	-0.00	0.0624	10.88	478.7	390.61	0.0543	401.4	7.224	14.41	6.58	1.47
	88.58	19.69	67.81	0.00	0.0623	10.88	478.6	390.55	0.0543	402.0	7.237	14.44	6.61	1.47
	89.58	19.70	67.81	0.00	0.0623	10.88	478.8	390.72	0.0544	402.5	7.244	14.45	6.62	1.47
	90.57	19.65	67.83	0.00	0.0623	10.88	478.6	390.32	0.0543	402.3	7.241	14.44	6.61	1.47
	91.65	19.59	67.83	-0.00	0.0623	10.87	478.4	390.08	0.0543	401.7	7.230	14.41	6.59	1.47
	92.56	19.58	67.81	0.00	0.0623	10.87	478.3	390.15	0.0543	401.5	7.228	14.41	6.58	1.47
	93.60	19.59	67.81	-0.00	0.0623	10.87	478.4	390.28	0.0544	402.4	7.243	14.44	6.61	1.47
	94.57	19.56	67.83	0.00	0.0624	10.89	479.0	390.56	0.0545	403.9	7.270	14.49	6.66	1.47
	95.58	19.56	67.81	0.00	0.0624	10.89	479.4	390.99	0.0546	404.6	7.283	14.52	6.69	1.47
	96.64	19.58	67.83	0.00	0.0624	10.90	479.6	391.05	0.0545	404.8	7.287	14.52	6.70	1.47
	97.56	19.59	67.81	0.00	0.0624	10.90	479.6	391.22	0.0544	402.9	7.253	14.46	6.63	1.47
	98.58	19.63	67.81	-0.00	0.0624	10.90	479.4	391.14	0.0543	401.8	7.233	14.43	6.59	1.47
	99.56	19.66	67.81	0.00	0.0624	10.89	479.2	390.99	0.0541	400.2	7.204	14.37	6.54	1.47
	100.59	19.69	67.83	0.00	0.0624	10.89	479.1	390.80	0.0541	400.3	7.205	14.37	6.54	1.47
	101.65	19.71	67.81	0.00	0.0624	10.90	479.6	391.39	0.0542	401.3	7.224	14.41	6.58	1.47
	102.57	19.73	67.81	-0.00	0.0624	10.90	479.6	391.42	0.0542	400.8	7.214	14.39	6.56	1.47
	103.58	19.74	67.81	-0.00	0.0624	10.90	479.4	391.28	0.0541	400.1	7.201	14.37	6.54	1.47
	104.57	19.76	67.83	0.00	0.0624	10.89	479.3	391.07	0.0541	399.5	7.191	14.34	6.52	1.47
	105.58	19.76	67.83	0.00	0.0624	10.90	479.4	391.15	0.0542	400.0	7.200	14.36	6.53	1.47
	106.59	19.76	67.83	-0.00	0.0624	10.89	479.2	391.01	0.0541	400.0	7.199	14.36	6.53	1.47
	107.66	19.76	67.81	0.00	0.0623	10.89	479.0	391.00	0.0541	400.2	7.204	14.37	6.54	1.47
	108.58	19.75	67.81	0.00	0.0624	10.90	479.5	391.36	0.0544	401.7	7.231	14.43	6.60	1.47
	109.59	19.74	67.83	-0.00	0.0624	10.89	479.3	391.04	0.0544	403.3	7.259	14.48	6.65	1.47
	110.57	19.73	67.81	0.00	0.0624	10.88	478.9	390.83	0.0543	400.8	7.214	14.39	6.56	1.47
	111.57	19.73	67.81	0.00	0.0624	10.88	478.7	390.70	0.0543	401.2	7.222	14.41	6.58	1.47
	112.57	19.70	67.81	-0.00	0.0624	10.89	479.0	390.92	0.0544	403.8	7.269	14.50	6.67	1.47
	113.57	19.70	67.83	0.00	0.0624	10.90	479.5	391.17	0.0546	405.6	7.301	14.56	6.73	1.47
	114.57	19.68	67.81	0.00	0.0624	10.90	479.5	391.25	0.0548	405.9	7.306	14.57	6.74	1.47
	115.58	19.64	67.81	0.00	0.0625	10.91	480.0	391.68	0.0550	408.0	7.345	14.65	6.82	1.47
	116.59	19.68	67.85	-0.00	0.0625	10.91	479.9	391.31	0.0550	407.8	7.341	14.63	6.81	1.47
	117.66	19.70	67.81	0.00	0.0625	10.91	480.2	391.89	0.0550	408.7	7.356	14.67	6.84	1.47
	118.58	19.73	67.83	0.00	0.0625	10.92	480.5	391.98	0.0550	409.2	7.365	14.69	6.86	1.47
