Jul 25 2015 at 13:58:32
Frequency: 1.00Hz.
CO2
Zero:  Value:0.95  Date:18 Mar 2005	 at 07:22:33	
Span:  Value:1.00  Date:18 Mar 2005	 at 07:25:09	
H2O
Zero:  Value:0.71  Date:18 Mar 2005	 at 07:52:31	
Span:  Value:0.99  Date:18 Mar 2005	 at 11:44:01	
	Relative Time	Temperature	Pressure	Aux Input	CO2 Absorptance	CO2 mmol/m3	CO2 mg/m3	CO2 umol/mol	H2O Absorptance	H2O mmol/m3	H2O g/m3	H2O mmol/mol	H2O(°C)	Cooler Voltage
	0.70	33.84	70.20	-0.00	0.0593	10.08	443.7	366.60	0.0993	978.7	17.616	35.58	21.01	1.77
	1.69	33.84	70.23	-0.00	0.0592	10.09	444.1	366.79	0.0997	976.6	17.579	35.49	20.98	1.77
	2.68	33.84	70.23	0.00	0.0594	10.10	444.5	367.18	0.0992	978.0	17.604	35.54	21.00	1.77
	3.68	33.79	70.23	-0.00	0.0595	10.12	445.1	367.57	0.0987	975.1	17.551	35.43	20.95	1.77
	4.68	33.83	70.23	0.00	0.0594	10.12	445.4	367.86	0.0988	971.9	17.494	35.32	20.90	1.77
	5.71	33.78	70.20	-0.00	0.0592	10.09	444.0	366.80	0.1016	997.2	17.950	36.25	21.32	1.77
	6.69	33.79	70.23	0.00	0.0593	10.07	443.3	366.06	0.1003	998.6	17.975	36.29	21.34	1.77
	7.71	33.84	70.20	0.00	0.0595	10.12	445.4	368.00	0.0978	963.6	17.345	35.03	20.76	1.77
	8.69	33.86	70.23	0.00	0.0593	10.11	445.0	367.63	0.1000	964.9	17.368	35.07	20.78	1.77
	9.69	33.83	70.23	0.00	0.0592	10.07	443.1	365.99	0.1006	993.1	17.876	36.09	21.25	1.77
	10.78	33.85	70.20	-0.00	0.0592	10.09	444.0	366.91	0.1000	977.0	17.586	35.52	20.99	1.77
	11.70	33.83	70.25	-0.00	0.0596	10.11	444.7	367.23	0.0971	963.2	17.337	34.99	20.75	1.77
	12.70	33.82	70.20	0.00	0.0594	10.11	444.8	367.53	0.0971	949.3	17.088	34.51	20.52	1.77
	13.68	33.83	70.20	0.00	0.0597	10.19	448.5	370.55	0.0955	911.6	16.408	33.14	19.86	1.77
	14.68	33.84	70.18	-0.00	0.0594	10.12	445.3	368.04	0.0986	951.7	17.130	34.61	20.56	1.78
	15.68	33.85	70.20	0.00	0.0594	10.13	445.9	368.42	0.0988	960.1	17.282	34.91	20.70	1.77
	16.75	33.92	70.23	0.00	0.0594	10.13	445.9	368.42	0.0979	940.8	16.935	34.20	20.38	1.77
	17.68	33.95	70.20	0.00	0.0594	10.11	444.8	367.70	0.0982	953.6	17.164	34.68	20.60	1.77
	18.77	33.95	70.23	0.00	0.0594	10.12	445.2	367.83	0.0971	936.1	16.850	34.03	20.30	1.77
	19.69	33.95	70.23	0.00	0.0595	10.13	445.9	368.42	0.0966	930.9	16.756	33.84	20.21	1.77
	20.70	33.95	70.20	-0.00	0.0594	10.12	445.5	368.23	0.0964	929.0	16.722	33.79	20.17	1.78
	21.68	33.97	70.23	0.00	0.0594	10.13	445.5	368.15	0.0966	931.8	16.773	33.88	20.22	1.77
	22.76	33.94	70.20	0.00	0.0594	10.12	445.4	368.17	0.0962	925.5	16.659	33.66	20.11	1.77
	23.68	33.95	70.23	0.00	0.0593	10.11	444.7	367.41	0.0963	922.2	16.599	33.53	20.05	1.77
	24.70	33.90	70.20	-0.00	0.0593	10.12	445.4	368.10	0.0964	924.6	16.642	33.62	20.09	1.77
	25.68	33.91	70.28	0.00	0.0594	10.13	445.6	367.85	0.0963	925.9	16.666	33.63	20.12	1.77
	26.68	33.87	70.20	0.00	0.0593	10.12	445.2	367.94	0.0961	922.7	16.608	33.55	20.06	1.78
	27.68	33.90	70.23	0.00	0.0594	10.12	445.4	367.99	0.0961	921.4	16.586	33.50	20.04	1.77
	28.69	33.90	70.23	0.00	0.0595	10.15	446.6	368.97	0.0964	925.4	16.657	33.64	20.11	1.77
	29.69	33.88	70.20	0.00	0.0594	10.12	445.3	368.02	0.0963	925.0	16.650	33.63	20.10	1.77
	30.70	33.90	70.23	-0.00	0.0594	10.12	445.3	367.87	0.0966	928.3	16.710	33.75	20.16	1.77
	31.68	33.90	70.23	0.00	0.0593	10.10	444.6	367.30	0.0970	937.2	16.869	34.07	20.31	1.77
	32.70	33.95	70.20	-0.00	0.0594	10.11	445.0	367.84	0.0968	933.6	16.805	33.96	20.25	1.78
	33.68	33.95	70.25	0.00	0.0594	10.12	445.3	367.84	0.0968	932.7	16.788	33.90	20.24	1.77
	34.68	33.95	70.20	0.00	0.0594	10.13	445.6	368.37	0.0965	929.3	16.727	33.80	20.18	1.77
	35.68	33.97	70.18	0.00	0.0595	10.14	446.0	368.80	0.0965	928.6	16.715	33.79	20.17	1.77
	36.69	33.97	70.20	-0.00	0.0594	10.11	444.7	367.59	0.0970	934.3	16.818	33.98	20.27	1.77
	37.67	33.91	70.18	-0.00	0.0593	10.11	444.9	367.80	0.0967	931.1	16.759	33.87	20.21	1.77
	38.69	33.91	70.20	-0.00	0.0593	10.13	445.7	368.33	0.0969	932.3	16.782	33.90	20.23	1.78
	39.69	33.94	70.23	0.00	0.0595	10.11	444.7	367.44	0.0971	938.9	16.901	34.13	20.35	1.77
	40.69	33.97	70.20	0.00	0.0594	10.13	445.6	368.35	0.0970	936.3	16.854	34.06	20.30	1.77
	41.68	33.99	70.20	-0.00	0.0594	10.11	444.9	367.75	0.0971	934.3	16.818	33.98	20.27	1.77
	42.70	33.97	70.23	-0.00	0.0593	10.11	444.7	367.45	0.0969	934.0	16.812	33.96	20.26	1.77
	43.68	33.99	70.23	0.00	0.0591	10.11	444.9	367.66	0.0970	937.3	16.872	34.08	20.32	1.77
	44.68	34.04	70.23	0.00	0.0593	10.09	444.1	367.06	0.0968	933.2	16.798	33.94	20.25	1.78
	45.68	34.12	70.23	0.00	0.0595	10.14	446.2	368.87	0.0973	941.6	16.949	34.25	20.40	1.77
	46.69	34.06	70.23	0.00	0.0593	10.09	444.1	367.10	0.0971	936.2	16.852	34.05	20.30	1.77
	47.69	34.11	70.23	-0.00	0.0592	10.08	443.7	366.83	0.0968	923.8	16.629	33.60	20.09	1.77
	48.70	34.09	70.25	-0.00	0.0594	10.11	445.0	367.77	0.0972	936.3	16.853	34.04	20.31	1.77
	49.70	34.09	70.23	-0.00	0.0594	10.12	445.4	368.22	0.0967	933.1	16.796	33.94	20.25	1.77
	50.70	34.16	70.23	0.00	0.0592	10.08	443.4	366.62	0.0971	937.4	16.874	34.11	20.33	1.78
	51.70	34.16	70.23	-0.00	0.0592	10.07	443.0	366.33	0.0968	933.9	16.809	33.98	20.27	1.77
	52.68	34.18	70.23	-0.00	0.0592	10.10	444.6	367.65	0.0965	933.7	16.806	33.97	20.27	1.77
	53.68	34.18	70.23	0.00	0.0595	10.10	444.4	367.44	0.0970	931.6	16.770	33.90	20.23	1.77
	54.69	34.13	70.25	-0.00	0.0593	10.10	444.2	367.16	0.0964	926.4	16.675	33.69	20.14	1.77
	55.68	34.17	70.20	0.00	0.0593	10.09	444.1	367.32	0.0968	930.9	16.757	33.88	20.22	1.77
	56.69	34.19	70.23	-0.00	0.0593	10.11	444.9	367.91	0.0968	932.9	16.791	33.94	20.25	1.77
	57.67	34.18	70.23	0.00	0.0593	10.10	444.4	367.50	0.0969	933.1	16.796	33.95	20.26	1.77
	58.77	34.21	70.20	0.00	0.0593	10.12	445.3	368.42	0.0969	933.9	16.810	33.99	20.27	1.77
	59.69	34.22	70.20	-0.00	0.0593	10.09	443.9	367.28	0.0967	929.4	16.729	33.83	20.19	1.77
	60.69	34.20	70.20	0.00	0.0593	10.07	443.1	366.52	0.0965	925.2	16.654	33.68	20.12	1.77
	61.68	34.19	70.23	0.00	0.0593	10.10	444.4	367.46	0.0965	928.9	16.720	33.80	20.18	1.77
	62.68	34.21	70.20	0.00	0.0593	10.10	444.6	367.80	0.0965	927.9	16.702	33.78	20.17	1.77
	63.70	34.24	70.23	-0.00	0.0593	10.13	445.6	368.59	0.0966	930.9	16.756	33.88	20.22	1.77
	64.69	34.26	70.20	-0.00	0.0592	10.11	445.0	368.19	0.0962	927.9	16.702	33.78	20.17	1.77
	65.68	34.23	70.23	0.00	0.0593	10.11	444.8	367.85	0.0965	928.4	16.712	33.79	20.18	1.77
	66.69	34.22	70.20	0.00	0.0592	10.07	443.2	366.67	0.0969	929.2	16.726	33.83	20.19	1.78
	67.70	34.23	70.23	-0.00	0.0594	10.13	445.6	368.55	0.0969	933.8	16.809	33.98	20.27	1.77
	68.69	34.29	70.25	0.00	0.0594	10.12	445.2	368.17	0.0970	935.3	16.836	34.03	20.30	1.77
	69.70	34.29	70.23	-0.00	0.0592	10.09	443.9	367.16	0.0970	936.2	16.851	34.07	20.32	1.77
	70.68	34.27	70.23	-0.00	0.0593	10.10	444.5	367.70	0.0968	933.4	16.802	33.97	20.27	1.77
	71.68	34.33	70.20	0.00	0.0592	10.09	444.0	367.44	0.0969	934.8	16.827	34.04	20.29	1.77
	72.74	34.30	70.23	0.00	0.0593	10.07	442.9	366.39	0.0970	931.3	16.764	33.90	20.23	1.78
	73.68	34.34	70.20	0.00	0.0593	10.09	443.8	367.27	0.0967	926.7	16.681	33.75	20.15	1.78
	74.68	34.30	70.23	-0.00	0.0593	10.08	443.3	366.73	0.0966	926.6	16.678	33.73	20.15	1.77
	75.69	34.32	70.20	-0.00	0.0594	10.12	445.3	368.53	0.0968	934.0	16.812	34.01	20.28	1.77
	76.69	34.36	70.23	0.00	0.0593	10.09	444.2	367.50	0.0968	930.8	16.755	33.89	20.23	1.77
	77.67	34.37	70.20	0.00	0.0592	10.09	444.0	367.47	0.0966	931.6	16.769	33.93	20.24	1.78
	78.69	34.38	70.25	-0.00	0.0594	10.11	445.0	368.08	0.0972	937.6	16.877	34.12	20.35	1.77
	79.69	34.36	70.23	0.00	0.0593	10.10	444.6	367.87	0.0968	935.1	16.832	34.04	20.30	1.77
	80.70	34.39	70.20	-0.00	0.0593	10.07	442.9	366.63	0.0970	932.1	16.777	33.95	20.25	1.77
	81.68	34.37	70.23	0.00	0.0593	10.09	444.2	367.51	0.0968	933.5	16.803	33.99	20.27	1.78
	82.68	34.39	70.23	0.00	0.0591	10.06	442.7	366.32	0.0969	934.9	16.828	34.04	20.30	1.77
	83.69	34.36	70.20	-0.00	0.0592	10.07	443.2	366.80	0.0968	931.9	16.774	33.94	20.25	1.78
	84.69	34.36	70.20	-0.00	0.0591	10.07	443.2	366.80	0.0968	932.7	16.789	33.97	20.26	1.78
	85.71	34.38	70.23	0.00	0.0592	10.08	443.7	367.13	0.0970	933.9	16.810	34.00	20.28	1.78
	86.67	34.39	70.18	0.00	0.0592	10.09	443.8	367.45	0.0970	935.9	16.846	34.10	20.32	1.78
	87.69	34.39	70.20	0.00	0.0591	10.06	442.7	366.44	0.0971	939.1	16.905	34.21	20.37	1.77
	88.70	34.34	70.23	-0.00	0.0592	10.07	443.0	366.54	0.0972	937.5	16.875	34.13	20.34	1.77
	89.69	34.35	70.23	0.00	0.0592	10.07	443.3	366.75	0.0970	935.3	16.835	34.05	20.30	1.78
	90.67	34.30	70.20	0.00	0.0591	10.04	441.8	365.56	0.0968	929.8	16.737	33.86	20.21	1.78
	91.76	34.28	70.20	-0.00	0.0592	10.07	443.1	366.63	0.0969	933.8	16.809	34.00	20.27	1.77
	92.68	34.28	70.21	-0.00	0.0592	10.08	443.4	366.85	0.0970	934.9	16.828	34.03	20.29	1.77
	93.68	34.29	70.20	0.00	0.0591	10.07	443.2	366.72	0.0969	935.4	16.837	34.06	20.30	1.77
	94.69	34.30	70.23	-0.00	0.0592	10.07	442.9	366.36	0.0969	931.9	16.775	33.92	20.24	1.77
	95.69	34.34	70.20	0.00	0.0591	10.06	442.4	366.18	0.0969	934.7	16.825	34.04	20.29	1.78
	96.69	34.35	70.20	0.00	0.0590	10.05	442.1	365.95	0.0966	928.5	16.714	33.81	20.19	1.78
	97.69	34.30	70.20	0.00	0.0593	10.11	444.9	368.19	0.0968	932.8	16.791	33.96	20.26	1.77
	98.69	34.33	70.23	0.00	0.0593	10.11	444.7	367.88	0.0968	933.7	16.806	33.99	20.27	1.78
	99.69	34.31	70.20	0.00	0.0594	10.12	445.1	368.34	0.0969	935.2	16.834	34.05	20.30	1.78
	100.68	34.29	70.23	0.00	0.0593	10.09	443.8	367.10	0.0968	932.6	16.787	33.94	20.25	1.78
	101.68	34.33	70.20	0.00	0.0592	10.08	443.7	367.20	0.0969	933.5	16.803	33.99	20.27	1.78
	102.70	34.34	70.22	-0.00	0.0591	10.06	442.6	366.20	0.0967	932.1	16.778	33.93	20.25	1.78
	103.76	34.37	70.20	0.00	0.0592	10.08	443.5	367.11	0.0971	934.6	16.823	34.04	20.29	1.77
	104.68	34.34	70.18	0.00	0.0590	10.04	442.0	365.90	0.0971	939.9	16.919	34.24	20.38	1.78
	105.69	34.35	70.23	-0.00	0.0592	10.07	443.3	366.74	0.0972	939.3	16.907	34.19	20.37	1.77
	106.67	34.30	70.20	0.00	0.0592	10.08	443.3	366.86	0.0971	939.0	16.902	34.19	20.36	1.77
	107.69	34.32	70.21	-0.00	0.0592	10.07	443.1	366.64	0.0969	934.3	16.817	34.02	20.28	1.78
	108.67	34.33	70.23	0.00	0.0593	10.10	444.6	367.82	0.0974	942.1	16.958	34.30	20.42	1.78
	109.69	34.41	70.20	0.00	0.0593	10.09	443.9	367.48	0.0975	943.2	16.978	34.36	20.44	1.78
	110.67	34.32	70.23	0.00	0.0592	10.07	443.3	366.72	0.0972	940.7	16.932	34.24	20.40	1.77
	111.70	34.35	70.20	-0.00	0.0592	10.07	443.1	366.71	0.0973	937.2	16.870	34.13	20.34	1.78
	112.69	34.37	70.23	0.00	0.0589	10.03	441.2	365.03	0.0979	949.7	17.095	34.58	20.55	1.78
	113.68	34.37	70.23	0.00	0.0590	10.05	442.1	365.83	0.0978	950.1	17.102	34.59	20.56	1.78
	114.69	34.33	70.23	0.00	0.0589	10.02	441.0	364.85	0.0980	950.0	17.099	34.58	20.55	1.78
	115.67	34.32	70.23	0.00	0.0589	10.02	440.7	364.61	0.0977	944.9	17.008	34.39	20.47	1.78
	116.69	34.32	70.20	0.00	0.0590	10.03	441.5	365.39	0.0979	948.3	17.070	34.53	20.53	1.78
	117.69	34.29	70.25	-0.00	0.0589	10.02	440.9	364.57	0.0985	952.9	17.153	34.67	20.60	1.78
	118.69	34.26	70.20	0.00	0.0588	9.99	439.6	363.70	0.0985	957.6	17.237	34.86	20.68	1.78
	119.70	34.26	70.23	-0.00	0.0588	10.00	440.0	363.94	0.0985	958.0	17.245	34.87	20.69	1.78
	120.68	34.26	70.20	-0.00	0.0587	9.96	438.3	362.67	0.0987	970.4	17.468	35.33	20.90	1.78
