Jul 25 2015 at 11:10:18
Frequency: 1.00Hz.
CO2
Zero:  Value:0.95  Date:18 Mar 2005	 at 07:22:33	
Span:  Value:1.00  Date:18 Mar 2005	 at 07:25:09	
H2O
Zero:  Value:0.71  Date:18 Mar 2005	 at 07:52:31	
Span:  Value:0.99  Date:18 Mar 2005	 at 11:44:01	
	Relative Time	Temperature	Pressure	Aux Input	CO2 Absorptance	CO2 mmol/m3	CO2 mg/m3	CO2 umol/mol	H2O Absorptance	H2O mmol/m3	H2O g/m3	H2O mmol/mol	H2O(°C)	Cooler Voltage
	0.27	24.40	67.79	-0.00	0.0597	10.30	453.3	375.96	0.0700	577.3	10.391	21.07	12.22	1.68
	1.25	24.40	67.81	-0.00	0.0599	10.33	454.4	376.74	0.0699	577.6	10.397	21.07	12.23	1.68
	2.26	24.40	67.83	-0.00	0.0601	10.35	455.6	377.59	0.0682	570.9	10.275	20.82	12.05	1.68
	3.34	24.40	67.78	-0.00	0.0603	10.44	459.2	380.94	0.0675	541.6	9.749	19.77	11.25	1.68
	4.26	24.40	67.81	-0.00	0.0600	10.35	455.6	377.79	0.0686	563.4	10.141	20.55	11.85	1.68
	5.26	24.40	67.88	0.00	0.0601	10.39	457.3	378.78	0.0682	557.7	10.038	20.32	11.69	1.68
	6.26	24.38	67.83	-0.00	0.0597	10.30	453.2	375.57	0.0698	572.4	10.303	20.87	12.09	1.68
	7.27	24.36	67.83	-0.00	0.0595	10.25	451.0	373.82	0.0703	581.4	10.465	21.20	12.32	1.68
	8.33	24.36	67.83	0.00	0.0595	10.24	450.6	373.47	0.0703	584.2	10.516	21.30	12.40	1.68
	9.27	24.36	67.78	-0.00	0.0597	10.29	452.7	375.49	0.0698	578.2	10.407	21.10	12.24	1.68
	10.25	24.36	67.81	-0.00	0.0599	10.33	454.3	376.67	0.0692	569.8	10.257	20.79	12.02	1.68
	11.26	24.38	67.81	-0.00	0.0597	10.31	453.7	376.12	0.0699	576.7	10.380	21.04	12.20	1.68
	12.25	24.36	67.81	0.00	0.0594	10.23	450.1	373.18	0.0702	581.3	10.463	21.20	12.32	1.68
	13.26	24.42	67.81	0.00	0.0593	10.19	448.5	371.92	0.0707	587.7	10.579	21.44	12.49	1.68
	14.26	24.36	67.81	0.00	0.0595	10.23	449.9	373.00	0.0697	581.6	10.469	21.22	12.33	1.68
	15.26	24.36	67.81	-0.00	0.0595	10.23	450.1	373.18	0.0699	581.8	10.473	21.22	12.34	1.68
	16.25	24.35	67.83	-0.00	0.0593	10.21	449.3	372.32	0.0703	581.9	10.473	21.22	12.34	1.68
	17.27	24.36	67.84	-0.00	0.0593	10.19	448.4	371.56	0.0706	586.4	10.555	21.38	12.46	1.68
	18.27	24.35	67.81	-0.00	0.0593	10.21	449.1	372.36	0.0704	583.2	10.497	21.27	12.37	1.68
	19.25	24.35	67.81	-0.00	0.0594	10.21	449.4	372.51	0.0703	581.3	10.463	21.20	12.32	1.68
	20.25	24.33	67.81	0.00	0.0595	10.23	450.3	373.26	0.0700	580.7	10.452	21.18	12.31	1.68
	21.26	24.33	67.78	0.00	0.0597	10.28	452.4	375.14	0.0691	570.3	10.265	20.81	12.03	1.68
	22.32	24.33	67.81	0.00	0.0597	10.29	452.6	375.21	0.0695	571.3	10.284	20.84	12.06	1.68
	23.26	24.32	67.78	0.00	0.0596	10.25	451.1	374.06	0.0698	577.5	10.395	21.07	12.22	1.68
	24.26	24.35	67.83	-0.00	0.0595	10.26	451.2	373.95	0.0698	577.8	10.400	21.07	12.23	1.68
	25.26	24.33	67.83	-0.00	0.0597	10.28	452.5	374.95	0.0688	566.2	10.192	20.64	11.92	1.68
	26.25	24.33	67.78	0.00	0.0598	10.29	452.9	375.60	0.0687	564.6	10.163	20.60	11.88	1.68
	27.24	24.33	67.81	0.00	0.0599	10.34	454.9	377.13	0.0683	557.4	10.034	20.33	11.68	1.68
	28.33	24.34	67.81	-0.00	0.0599	10.32	454.3	376.60	0.0685	561.2	10.102	20.47	11.79	1.68
	29.23	24.35	67.81	0.00	0.0598	10.31	453.8	376.17	0.0685	561.7	10.111	20.49	11.80	1.68
	30.28	24.35	67.81	-0.00	0.0602	10.38	456.7	378.64	0.0671	546.4	9.836	19.93	11.38	1.68
	31.32	24.36	67.81	0.00	0.0602	10.42	458.4	380.08	0.0663	534.5	9.621	19.50	11.05	1.68
	32.28	24.35	67.81	-0.00	0.0603	10.42	458.6	380.21	0.0660	530.6	9.550	19.35	10.94	1.68
	33.26	24.34	67.81	0.00	0.0604	10.44	459.3	380.71	0.0652	524.3	9.437	19.12	10.76	1.68
	34.26	24.38	67.80	-0.00	0.0603	10.43	459.1	380.68	0.0656	524.3	9.437	19.13	10.76	1.68
	35.26	24.36	67.75	0.00	0.0600	10.37	456.3	378.62	0.0668	537.1	9.668	19.61	11.13	1.68
	36.26	24.36	67.81	-0.00	0.0598	10.31	453.5	376.01	0.0680	552.4	9.944	20.15	11.55	1.68
	37.33	24.42	67.83	-0.00	0.0596	10.28	452.1	374.80	0.0684	558.9	10.060	20.39	11.73	1.68
	38.24	24.38	67.81	0.00	0.0597	10.28	452.4	375.10	0.0685	560.5	10.089	20.45	11.77	1.68
	39.25	24.40	67.81	0.00	0.0601	10.37	456.2	378.27	0.0665	541.2	9.742	19.75	11.24	1.68
	40.23	24.38	67.81	0.00	0.0601	10.40	457.4	379.22	0.0663	533.0	9.594	19.44	11.01	1.68
	41.25	24.40	67.78	0.00	0.0604	10.44	459.3	380.93	0.0656	524.7	9.444	19.15	10.78	1.68
	42.31	24.40	67.81	0.00	0.0604	10.44	459.2	380.75	0.0651	522.7	9.409	19.07	10.72	1.68
	43.24	24.38	67.83	0.00	0.0611	10.57	465.3	385.65	0.0618	487.6	8.777	17.78	9.68	1.68
	44.24	24.40	67.85	0.00	0.0611	10.61	467.0	386.92	0.0615	479.9	8.638	17.50	9.44	1.68
	45.26	24.40	67.83	0.00	0.0612	10.62	467.3	387.34	0.0611	474.6	8.543	17.31	9.28	1.68
	46.25	24.40	67.83	0.00	0.0611	10.61	467.0	387.11	0.0619	482.7	8.688	17.60	9.53	1.68
	47.25	24.40	67.81	0.00	0.0610	10.59	465.9	386.31	0.0623	487.0	8.766	17.77	9.66	1.68
	48.27	24.44	67.81	-0.00	0.0609	10.57	465.1	385.66	0.0629	494.1	8.893	18.03	9.88	1.68
	49.25	24.42	67.81	0.00	0.0608	10.54	463.7	384.53	0.0634	499.8	8.997	18.24	10.05	1.69
	50.26	24.41	67.81	0.00	0.0606	10.50	461.9	382.99	0.0637	503.9	9.070	18.39	10.17	1.68
	51.26	24.40	67.81	-0.00	0.0607	10.51	462.5	383.53	0.0630	497.2	8.950	18.14	9.97	1.68
	52.26	24.42	67.81	-0.00	0.0610	10.57	464.9	385.52	0.0627	491.8	8.853	17.95	9.81	1.68
	53.26	24.42	67.81	0.00	0.0610	10.58	465.6	386.12	0.0625	490.2	8.823	17.88	9.76	1.69
	54.26	24.42	67.81	-0.00	0.0610	10.58	465.6	386.05	0.0618	484.2	8.716	17.67	9.58	1.69
	55.27	24.43	67.81	-0.00	0.0609	10.57	465.2	385.74	0.0618	482.1	8.678	17.59	9.51	1.69
	56.24	24.42	67.81	0.00	0.0609	10.56	464.7	385.36	0.0621	485.4	8.737	17.71	9.61	1.69
	57.24	24.42	67.81	0.00	0.0608	10.54	463.6	384.46	0.0625	489.8	8.816	17.87	9.75	1.69
	58.31	24.43	67.83	0.00	0.0607	10.51	462.5	383.45	0.0630	495.8	8.925	18.09	9.93	1.69
	59.25	24.43	67.81	-0.00	0.0606	10.49	461.4	382.62	0.0630	495.9	8.927	18.10	9.93	1.69
	60.25	24.45	67.81	0.00	0.0607	10.51	462.5	383.56	0.0628	493.6	8.885	18.01	9.86	1.69
	61.25	24.46	67.81	0.00	0.0606	10.49	461.7	382.90	0.0632	497.9	8.962	18.17	9.99	1.69
	62.27	24.45	67.81	-0.00	0.0605	10.47	460.5	381.90	0.0632	499.2	8.985	18.21	10.03	1.69
	63.26	24.47	67.83	-0.00	0.0605	10.47	460.7	381.96	0.0632	499.8	8.996	18.23	10.05	1.69
	64.26	24.47	67.81	0.00	0.0605	10.48	461.1	382.37	0.0629	495.1	8.911	18.06	9.91	1.69
	65.25	24.47	67.78	-0.00	0.0606	10.49	461.8	383.11	0.0630	495.7	8.922	18.09	9.93	1.69
	66.25	24.51	67.81	-0.00	0.0606	10.51	462.2	383.43	0.0626	492.7	8.869	17.98	9.84	1.69
	67.25	24.49	67.80	0.00	0.0606	10.49	461.6	382.88	0.0624	490.3	8.825	17.89	9.77	1.69
	68.25	24.45	67.81	-0.00	0.0606	10.50	461.8	382.98	0.0623	488.6	8.795	17.83	9.71	1.69
	69.26	24.49	67.83	-0.00	0.0606	10.50	461.9	383.00	0.0622	487.1	8.768	17.77	9.67	1.69
	70.25	24.53	67.81	0.00	0.0607	10.51	462.6	383.78	0.0619	484.1	8.713	17.67	9.58	1.69
	71.26	24.49	67.81	0.00	0.0607	10.52	463.0	383.99	0.0622	487.1	8.767	17.78	9.67	1.69
	72.24	24.49	67.80	0.00	0.0608	10.53	463.2	384.21	0.0622	487.6	8.777	17.80	9.68	1.69
	73.24	24.49	67.81	0.00	0.0608	10.54	463.9	384.81	0.0623	489.1	8.804	17.85	9.73	1.69
	74.32	24.49	67.81	0.00	0.0608	10.54	463.8	384.66	0.0625	490.0	8.820	17.88	9.76	1.69
	75.25	24.49	67.78	-0.00	0.0608	10.53	463.5	384.56	0.0627	491.9	8.855	17.96	9.82	1.69
	76.25	24.53	67.81	-0.00	0.0608	10.53	463.3	384.35	0.0624	488.8	8.799	17.84	9.72	1.69
	77.24	24.49	67.81	0.00	0.0608	10.54	463.9	384.81	0.0626	491.1	8.839	17.92	9.79	1.69
	78.25	24.51	67.78	0.00	0.0608	10.54	463.6	384.67	0.0624	490.4	8.828	17.91	9.77	1.69
	79.23	24.47	67.81	0.00	0.0609	10.55	464.3	385.04	0.0624	489.5	8.811	17.86	9.74	1.69
	80.26	24.51	67.81	-0.00	0.0609	10.55	464.0	384.88	0.0628	493.0	8.874	17.99	9.85	1.69
	81.23	24.50	67.81	0.00	0.0609	10.55	464.3	385.13	0.0628	493.7	8.886	18.02	9.87	1.69
	82.26	24.51	67.81	-0.00	0.0609	10.56	464.7	385.44	0.0626	491.0	8.838	17.92	9.79	1.69
	83.26	24.52	67.81	-0.00	0.0609	10.55	464.2	385.10	0.0625	490.8	8.834	17.91	9.78	1.69
	84.27	24.51	67.81	-0.00	0.0607	10.53	463.5	384.46	0.0622	491.2	8.842	17.93	9.79	1.69
	85.25	24.53	67.81	-0.00	0.0607	10.52	463.1	384.13	0.0624	489.7	8.814	17.87	9.75	1.69
	86.25	24.51	67.81	0.00	0.0607	10.53	463.2	384.19	0.0621	486.7	8.761	17.76	9.66	1.69
	87.25	24.52	67.81	0.00	0.0607	10.51	462.6	383.78	0.0621	485.9	8.746	17.73	9.63	1.69
	88.27	24.52	67.81	-0.00	0.0608	10.52	462.9	384.02	0.0626	489.5	8.811	17.87	9.74	1.69
	89.25	24.52	67.81	0.00	0.0607	10.52	462.9	383.95	0.0626	492.7	8.869	17.98	9.84	1.69
	90.26	24.52	67.83	-0.00	0.0607	10.52	462.8	383.74	0.0628	493.8	8.888	18.02	9.87	1.70
	91.25	24.54	67.81	0.00	0.0607	10.52	463.0	384.14	0.0631	496.1	8.930	18.11	9.94	1.69
	92.24	24.52	67.81	-0.00	0.0608	10.52	462.9	384.03	0.0631	497.1	8.947	18.14	9.97	1.69
	93.26	24.52	67.81	-0.00	0.0607	10.52	463.0	384.04	0.0631	497.4	8.953	18.15	9.98	1.69
	94.24	24.58	67.83	0.00	0.0607	10.51	462.5	383.64	0.0630	496.2	8.931	18.11	9.95	1.69
	95.25	24.54	67.78	-0.00	0.0607	10.51	462.6	383.88	0.0630	496.2	8.931	18.12	9.95	1.70
	96.24	24.54	67.81	0.00	0.0607	10.52	463.1	384.14	0.0632	498.7	8.976	18.20	10.02	1.70
	97.27	24.54	67.81	-0.00	0.0608	10.54	463.6	384.57	0.0632	498.5	8.973	18.20	10.02	1.69
	98.25	24.54	67.81	0.00	0.0607	10.53	463.2	384.25	0.0626	492.3	8.862	17.97	9.83	1.69
	99.25	24.54	67.83	0.00	0.0608	10.53	463.1	384.08	0.0627	491.5	8.848	17.94	9.81	1.69
	100.26	24.54	67.81	-0.00	0.0607	10.51	462.4	383.60	0.0629	494.9	8.908	18.06	9.91	1.70
	101.26	24.56	67.81	0.00	0.0606	10.49	461.8	383.07	0.0629	495.0	8.909	18.07	9.91	1.70
	102.24	24.56	67.83	0.00	0.0606	10.49	461.5	382.72	0.0629	494.6	8.902	18.05	9.90	1.70
	103.33	24.56	67.81	-0.00	0.0606	10.50	461.9	383.21	0.0630	495.9	8.925	18.10	9.94	1.70
	104.24	24.58	67.81	0.00	0.0606	10.50	461.9	383.19	0.0632	498.0	8.965	18.18	10.00	1.70
	105.25	24.54	67.81	0.00	0.0606	10.48	461.1	382.50	0.0632	497.9	8.962	18.17	10.00	1.70
	106.27	24.56	67.81	-0.00	0.0607	10.51	462.5	383.70	0.0634	500.4	9.007	18.27	10.07	1.70
	107.27	24.56	67.79	-0.00	0.0607	10.52	462.7	383.96	0.0633	499.7	8.994	18.25	10.05	1.70
	108.25	24.56	67.81	0.00	0.0607	10.52	462.7	383.84	0.0633	499.2	8.986	18.22	10.04	1.70
	109.26	24.56	67.78	-0.00	0.0608	10.53	463.4	384.55	0.0634	500.9	9.016	18.29	10.09	1.70
	110.25	24.56	67.81	-0.00	0.0607	10.52	462.8	383.91	0.0630	496.4	8.936	18.12	9.95	1.70
	111.24	24.58	67.83	0.00	0.0607	10.50	462.2	383.32	0.0628	492.9	8.871	17.99	9.85	1.70
	112.24	24.58	67.83	0.00	0.0608	10.52	462.8	383.83	0.0629	494.8	8.907	18.06	9.91	1.70
	113.24	24.58	67.81	0.00	0.0608	10.54	463.7	384.76	0.0631	497.9	8.962	18.17	10.00	1.70
	114.25	24.58	67.83	0.00	0.0608	10.54	463.7	384.56	0.0630	496.3	8.934	18.11	9.95	1.70
	115.25	24.56	67.79	0.00	0.0608	10.54	463.7	384.78	0.0630	496.6	8.938	18.13	9.96	1.70
	116.25	24.58	67.81	0.00	0.0608	10.54	463.9	384.83	0.0634	498.7	8.976	18.20	10.02	1.70
	117.33	24.58	67.81	0.00	0.0608	10.54	463.9	384.92	0.0634	501.2	9.021	18.30	10.10	1.70
	118.25	24.60	67.79	0.00	0.0607	10.53	463.1	384.38	0.0634	500.9	9.016	18.29	10.09	1.70
	119.25	24.58	67.81	0.00	0.0607	10.52	463.0	384.15	0.0630	496.8	8.942	18.14	9.97	1.70
	120.26	24.58	67.81	-0.00	0.0608	10.53	463.2	384.27	0.0628	494.3	8.898	18.05	9.89	1.70
	121.32	24.62	67.81	0.00	0.0606	10.51	462.2	383.57	0.0631	497.0	8.946	18.15	9.97	1.70
