Jul 25 2015 at 15:49:58
Frequency: 1.00Hz.
CO2
Zero:  Value:0.95  Date:18 Mar 2005	 at 07:22:33	
Span:  Value:1.00  Date:18 Mar 2005	 at 07:25:09	
H2O
Zero:  Value:0.71  Date:18 Mar 2005	 at 07:52:31	
Span:  Value:0.99  Date:18 Mar 2005	 at 11:44:01	
	Relative Time	Temperature	Pressure	Aux Input	CO2 Absorptance	CO2 mmol/m3	CO2 mg/m3	CO2 umol/mol	H2O Absorptance	H2O mmol/m3	H2O g/m3	H2O mmol/mol	H2O(°C)	Cooler Voltage
	0.66	34.49	67.70	0.00	0.0630	11.01	484.4	415.87	0.0524	379.8	6.837	14.35	6.50	1.67
	1.73	34.50	67.72	0.00	0.0631	11.06	486.6	417.68	0.0525	387.0	6.966	14.62	6.77	1.67
	2.67	34.51	67.75	-0.00	0.0629	11.02	484.9	416.05	0.0535	391.9	7.055	14.80	6.95	1.67
	3.65	34.51	67.70	0.00	0.0630	11.07	487.2	418.39	0.0529	392.1	7.059	14.82	6.96	1.67
	4.65	34.45	67.72	0.00	0.0628	11.03	485.2	416.38	0.0519	379.4	6.829	14.33	6.48	1.67
	5.66	34.49	67.70	-0.00	0.0628	11.00	484.2	415.73	0.0523	381.8	6.872	14.42	6.57	1.66
	6.66	34.48	67.71	-0.00	0.0627	10.99	483.5	415.07	0.0528	384.7	6.925	14.53	6.68	1.66
	7.64	34.50	67.72	0.00	0.0626	10.95	481.8	413.57	0.0524	382.8	6.891	14.46	6.61	1.66
	8.64	34.45	67.70	-0.00	0.0628	10.98	483.3	414.95	0.0531	386.9	6.965	14.62	6.76	1.66
	9.66	34.44	67.70	0.00	0.0626	10.98	483.1	414.74	0.0530	390.3	7.026	14.74	6.89	1.67
	10.67	34.43	67.72	-0.00	0.0625	10.93	481.1	412.89	0.0534	392.3	7.061	14.81	6.96	1.66
	11.73	34.42	67.70	-0.00	0.0626	10.96	482.0	413.76	0.0544	401.6	7.228	15.17	7.30	1.66
	12.65	34.42	67.70	-0.00	0.0625	10.93	480.9	412.77	0.0551	409.7	7.374	15.47	7.60	1.66
	13.67	34.42	67.70	-0.00	0.0624	10.93	480.8	412.72	0.0544	404.3	7.278	15.27	7.40	1.66
	14.65	34.43	67.65	0.00	0.0625	10.91	480.0	412.38	0.0552	407.2	7.329	15.39	7.51	1.66
	15.65	34.42	67.70	-0.00	0.0623	10.88	478.7	410.89	0.0545	404.6	7.283	15.28	7.41	1.67
	16.65	34.44	67.70	0.00	0.0624	10.90	479.7	411.84	0.0558	417.3	7.511	15.76	7.87	1.66
	17.66	34.44	67.70	-0.00	0.0624	10.92	480.3	412.35	0.0558	421.2	7.582	15.91	8.00	1.66
	18.64	34.41	67.70	-0.00	0.0622	10.86	477.8	410.13	0.0555	414.6	7.464	15.66	7.77	1.66
	19.66	34.41	67.75	-0.00	0.0623	10.88	478.5	410.47	0.0557	419.9	7.558	15.85	7.96	1.66
	20.67	34.38	67.70	-0.00	0.0624	10.90	479.4	411.49	0.0563	421.3	7.583	15.91	8.00	1.66
	21.73	34.36	67.72	-0.00	0.0623	10.91	479.9	411.78	0.0564	424.5	7.641	16.03	8.12	1.67
	22.64	34.36	67.70	0.00	0.0624	10.90	479.6	411.56	0.0559	419.6	7.552	15.84	7.94	1.66
	23.65	34.36	67.68	0.00	0.0623	10.87	478.1	410.48	0.0561	416.0	7.488	15.72	7.82	1.66
	24.65	34.36	67.72	0.00	0.0623	10.88	478.9	410.88	0.0566	429.0	7.722	16.20	8.27	1.66
	25.65	34.36	67.68	0.00	0.0622	10.85	477.2	409.74	0.0558	415.6	7.481	15.70	7.80	1.66
	26.66	34.39	67.70	0.00	0.0622	10.86	478.0	410.28	0.0570	428.8	7.718	16.19	8.26	1.66
	27.64	34.41	67.70	0.00	0.0623	10.87	478.1	410.40	0.0573	432.5	7.785	16.34	8.39	1.67
	28.66	34.34	67.68	-0.00	0.0622	10.86	478.0	410.38	0.0571	433.6	7.805	16.38	8.43	1.66
	29.66	34.34	67.70	0.00	0.0621	10.83	476.7	409.08	0.0569	431.0	7.759	16.28	8.34	1.66
	30.64	34.34	67.71	0.00	0.0622	10.85	477.3	409.59	0.0574	437.1	7.868	16.50	8.54	1.66
	31.64	34.34	67.73	0.00	0.0621	10.84	477.0	409.23	0.0572	431.6	7.769	16.29	8.36	1.66
	32.65	34.34	67.72	0.00	0.0621	10.83	476.4	408.75	0.0570	433.3	7.800	16.36	8.42	1.66
	33.65	34.33	67.70	0.00	0.0621	10.82	476.0	408.51	0.0564	423.0	7.614	15.97	8.06	1.66
	34.65	34.36	67.68	-0.00	0.0621	10.84	477.1	409.60	0.0567	427.6	7.697	16.16	8.22	1.66
	35.66	34.30	67.72	0.00	0.0620	10.82	476.0	408.33	0.0572	431.3	7.764	16.28	8.35	1.66
	36.66	34.30	67.71	-0.00	0.0621	10.81	475.8	408.20	0.0581	441.4	7.945	16.66	8.69	1.66
	37.66	34.28	67.72	-0.00	0.0620	10.81	475.7	408.04	0.0584	445.7	8.022	16.82	8.83	1.66
	38.67	34.32	67.70	0.00	0.0619	10.79	474.6	407.24	0.0579	439.4	7.910	16.59	8.62	1.66
	39.66	34.31	67.70	-0.00	0.0620	10.79	474.9	407.48	0.0580	440.5	7.930	16.63	8.66	1.66
	40.64	34.30	67.70	0.00	0.0620	10.80	475.4	407.93	0.0582	442.7	7.969	16.72	8.73	1.66
	41.67	34.31	67.70	-0.00	0.0620	10.79	474.6	407.25	0.0587	444.1	7.995	16.77	8.78	1.66
	42.65	34.32	67.70	0.00	0.0619	10.77	473.9	406.71	0.0590	450.2	8.104	17.00	8.98	1.66
	43.63	34.35	67.67	0.00	0.0619	10.78	474.4	407.33	0.0596	457.0	8.226	17.27	9.20	1.66
	44.66	34.37	67.72	-0.00	0.0617	10.74	472.7	405.60	0.0599	464.2	8.356	17.52	9.44	1.66
	45.65	34.36	67.70	-0.00	0.0618	10.77	473.8	406.62	0.0597	461.2	8.301	17.42	9.34	1.66
	46.71	34.35	67.72	0.00	0.0618	10.77	473.8	406.49	0.0597	459.8	8.277	17.36	9.30	1.66
	47.66	34.34	67.72	0.00	0.0617	10.75	472.9	405.68	0.0602	463.9	8.350	17.51	9.43	1.66
	48.64	34.28	67.68	0.00	0.0618	10.75	473.1	406.10	0.0603	464.7	8.364	17.55	9.45	1.66
	49.66	34.28	67.70	-0.00	0.0617	10.74	472.6	405.50	0.0599	462.7	8.328	17.47	9.38	1.66
	50.67	34.29	67.70	-0.00	0.0617	10.73	472.0	404.97	0.0595	459.0	8.262	17.33	9.27	1.66
	51.65	34.29	67.70	0.00	0.0617	10.75	473.1	405.96	0.0603	465.4	8.378	17.57	9.47	1.66
	52.67	34.32	67.72	0.00	0.0617	10.76	473.4	406.10	0.0601	464.1	8.353	17.52	9.43	1.66
	53.66	34.28	67.68	-0.00	0.0616	10.73	472.0	405.15	0.0598	462.6	8.326	17.47	9.38	1.66
	54.65	34.31	67.70	0.00	0.0615	10.73	472.0	404.99	0.0598	460.2	8.284	17.38	9.31	1.66
	55.65	34.30	67.70	0.00	0.0616	10.73	472.0	404.97	0.0598	461.8	8.313	17.44	9.36	1.66
	56.66	34.29	67.72	0.00	0.0616	10.71	471.3	404.23	0.0597	460.6	8.291	17.39	9.32	1.66
	57.66	34.28	67.70	0.00	0.0616	10.73	472.0	405.00	0.0594	456.4	8.216	17.23	9.18	1.66
	58.64	34.23	67.70	0.00	0.0616	10.73	472.1	405.01	0.0595	457.3	8.231	17.26	9.21	1.66
	59.67	34.29	67.70	-0.00	0.0616	10.71	471.4	404.48	0.0596	457.2	8.230	17.26	9.21	1.66
	60.72	34.26	67.70	0.00	0.0616	10.71	471.3	404.38	0.0596	455.9	8.207	17.21	9.17	1.66
	61.65	34.31	67.70	-0.00	0.0616	10.72	471.9	404.92	0.0594	457.3	8.231	17.27	9.21	1.66
	62.67	34.28	67.70	-0.00	0.0616	10.72	471.7	404.69	0.0595	457.2	8.229	17.26	9.21	1.66
	63.65	34.28	67.68	0.00	0.0616	10.71	471.5	404.66	0.0597	458.1	8.245	17.30	9.24	1.66
	64.63	34.31	67.70	0.00	0.0615	10.70	470.6	403.82	0.0594	455.4	8.197	17.19	9.15	1.66
	65.66	34.30	67.68	-0.00	0.0615	10.69	470.1	403.58	0.0594	456.6	8.218	17.25	9.19	1.66
	66.64	34.28	67.71	0.00	0.0616	10.70	471.0	404.10	0.0595	457.0	8.226	17.25	9.20	1.66
	67.63	34.30	67.72	0.00	0.0616	10.70	471.0	403.99	0.0595	457.9	8.242	17.28	9.23	1.66
	68.64	34.30	67.68	0.00	0.0615	10.70	470.7	404.04	0.0596	457.6	8.237	17.28	9.22	1.66
	69.66	34.30	67.72	0.00	0.0616	10.69	470.6	403.65	0.0595	457.4	8.234	17.26	9.22	1.66
	70.65	34.32	67.68	-0.00	0.0615	10.72	471.5	404.72	0.0594	459.1	8.263	17.34	9.27	1.66
	71.67	34.32	67.68	-0.00	0.0616	10.73	472.0	405.16	0.0600	462.8	8.331	17.48	9.39	1.66
	72.67	34.32	67.70	-0.00	0.0616	10.72	471.8	404.89	0.0598	461.0	8.298	17.41	9.33	1.66
	73.65	34.32	67.73	0.00	0.0616	10.72	471.6	404.56	0.0601	465.0	8.370	17.55	9.46	1.67
	74.66	34.37	67.73	-0.00	0.0616	10.72	471.5	404.51	0.0604	467.0	8.405	17.63	9.53	1.66
	75.66	34.32	67.73	-0.00	0.0616	10.70	470.6	403.69	0.0599	461.0	8.298	17.40	9.33	1.66
	76.64	34.32	67.70	0.00	0.0615	10.69	470.6	403.80	0.0600	462.7	8.329	17.47	9.39	1.66
	77.66	34.33	67.68	0.00	0.0614	10.67	469.6	403.18	0.0599	462.5	8.326	17.47	9.38	1.66
	78.64	34.31	67.70	0.00	0.0615	10.71	471.2	404.31	0.0606	470.7	8.473	17.77	9.64	1.66
	79.64	34.37	67.68	0.00	0.0615	10.69	470.6	404.03	0.0604	468.7	8.436	17.71	9.58	1.67
	80.65	34.38	67.73	-0.00	0.0615	10.68	470.0	403.29	0.0601	462.9	8.332	17.47	9.39	1.66
	81.65	34.36	67.72	-0.00	0.0615	10.70	470.8	403.92	0.0601	464.4	8.360	17.53	9.44	1.66
	82.65	34.38	67.70	0.00	0.0615	10.69	470.5	403.82	0.0601	463.4	8.341	17.50	9.41	1.66
	83.65	34.36	67.72	0.00	0.0613	10.66	469.2	402.56	0.0599	461.5	8.307	17.42	9.35	1.66
	84.66	34.38	67.70	0.00	0.0613	10.66	468.9	402.50	0.0604	469.7	8.455	17.74	9.61	1.66
	85.66	34.38	67.70	-0.00	0.0614	10.67	469.6	403.11	0.0601	464.4	8.360	17.54	9.44	1.66
	86.64	34.41	67.70	0.00	0.0615	10.68	470.1	403.49	0.0607	469.4	8.449	17.73	9.60	1.66
	87.66	34.42	67.70	0.00	0.0615	10.70	470.7	404.09	0.0608	473.1	8.516	17.87	9.72	1.66
	88.64	34.41	67.72	0.00	0.0615	10.69	470.4	403.67	0.0605	467.9	8.423	17.67	9.56	1.66
	89.64	34.33	67.70	0.00	0.0615	10.71	471.2	404.37	0.0614	476.6	8.579	18.00	9.83	1.66
	90.64	34.41	67.70	0.00	0.0614	10.68	470.1	403.52	0.0606	470.2	8.463	17.76	9.63	1.66
	91.65	34.36	67.68	-0.00	0.0615	10.70	470.6	404.10	0.0614	481.6	8.670	18.20	9.99	1.66
	92.65	34.38	67.73	0.00	0.0615	10.69	470.5	403.69	0.0614	477.2	8.589	18.01	9.85	1.66
	93.63	34.39	67.70	0.00	0.0614	10.70	470.7	404.07	0.0609	475.6	8.560	17.96	9.80	1.66
	94.66	34.34	67.73	-0.00	0.0615	10.69	470.4	403.54	0.0609	472.8	8.510	17.84	9.71	1.66
	95.64	34.37	67.72	0.00	0.0615	10.69	470.4	403.58	0.0613	476.4	8.575	17.98	9.82	1.66
	96.66	34.40	67.70	-0.00	0.0614	10.68	469.9	403.39	0.0609	474.1	8.534	17.91	9.75	1.66
	97.66	34.32	67.70	0.00	0.0613	10.65	468.6	402.13	0.0610	472.6	8.507	17.85	9.70	1.66
	98.66	34.29	67.70	0.00	0.0614	10.66	469.1	402.54	0.0612	475.2	8.554	17.94	9.78	1.66
	99.64	34.28	67.72	0.00	0.0613	10.65	468.7	401.99	0.0610	473.9	8.531	17.89	9.74	1.66
	100.67	34.35	67.70	-0.00	0.0614	10.67	469.4	402.84	0.0612	475.7	8.563	17.97	9.80	1.66
	101.65	34.29	67.70	-0.00	0.0614	10.67	469.7	402.98	0.0612	476.3	8.574	17.98	9.82	1.66
	102.65	34.28	67.70	-0.00	0.0614	10.67	469.4	402.74	0.0614	477.9	8.603	18.04	9.87	1.66
	103.66	34.31	67.72	-0.00	0.0614	10.67	469.6	402.87	0.0613	477.4	8.593	18.02	9.85	1.66
	104.65	34.31	67.70	0.00	0.0613	10.66	469.2	402.63	0.0612	475.4	8.557	17.95	9.79	1.66
	105.63	34.30	67.68	0.00	0.0613	10.67	469.3	402.85	0.0616	479.0	8.621	18.09	9.90	1.66
	106.66	34.27	67.70	-0.00	0.0614	10.67	469.3	402.70	0.0623	486.0	8.748	18.35	10.12	1.66
	107.67	34.33	67.72	-0.00	0.0615	10.69	470.4	403.56	0.0630	496.4	8.936	18.74	10.44	1.66
	108.73	34.28	67.70	-0.00	0.0613	10.64	468.1	401.65	0.0619	486.4	8.754	18.36	10.13	1.66
	109.65	34.28	67.65	-0.00	0.0615	10.70	470.6	404.10	0.0632	496.4	8.936	18.76	10.43	1.66
	110.65	34.26	67.70	0.00	0.0613	10.65	468.4	401.90	0.0625	489.2	8.806	18.47	10.22	1.66
	111.73	34.23	67.70	-0.00	0.0613	10.64	468.1	401.55	0.0625	489.5	8.812	18.48	10.22	1.66
	112.63	34.21	67.70	0.00	0.0612	10.64	468.3	401.68	0.0624	491.3	8.844	18.54	10.28	1.66
	113.66	34.21	67.68	-0.00	0.0613	10.64	468.3	401.86	0.0623	489.6	8.813	18.49	10.23	1.66
	114.64	34.17	67.70	0.00	0.0613	10.65	468.7	401.99	0.0624	489.5	8.812	18.47	10.22	1.66
	115.64	34.19	67.70	-0.00	0.0613	10.67	469.3	402.57	0.0627	494.1	8.894	18.65	10.36	1.66
	116.66	34.17	67.70	-0.00	0.0613	10.65	468.5	401.84	0.0628	493.4	8.882	18.62	10.34	1.66
	117.64	34.15	67.70	0.00	0.0612	10.64	468.1	401.45	0.0628	494.3	8.897	18.65	10.36	1.66
	118.64	34.17	67.70	0.00	0.0613	10.66	468.9	402.20	0.0630	497.1	8.947	18.76	10.45	1.66
	119.65	34.19	67.72	-0.00	0.0613	10.65	468.5	401.78	0.0628	494.1	8.893	18.64	10.36	1.66
