Jul 25 2015 at 16:56:10
Frequency: 1.00Hz.
CO2
Zero:  Value:0.95  Date:18 Mar 2005	 at 07:22:33	
Span:  Value:1.00  Date:18 Mar 2005	 at 07:25:09	
H2O
Zero:  Value:0.71  Date:18 Mar 2005	 at 07:52:31	
Span:  Value:0.99  Date:18 Mar 2005	 at 11:44:01	
	Relative Time	Temperature	Pressure	Aux Input	CO2 Absorptance	CO2 mmol/m3	CO2 mg/m3	CO2 umol/mol	H2O Absorptance	H2O mmol/m3	H2O g/m3	H2O mmol/mol	H2O(°C)	Cooler Voltage
	0.20	34.52	67.70	0.00	0.0620	10.82	475.9	408.65	0.0541	399.4	7.190	15.09	7.23	1.64
	1.22	34.53	67.65	0.00	0.0619	10.78	474.3	407.59	0.0541	401.6	7.229	15.19	7.31	1.64
	2.25	34.51	67.67	-0.00	0.0618	10.74	472.7	406.04	0.0536	396.3	7.133	14.98	7.11	1.64
	3.29	34.53	67.63	-0.00	0.0620	10.79	475.0	408.33	0.0536	395.6	7.120	14.96	7.09	1.64
	4.28	34.56	67.68	0.00	0.0620	10.79	474.8	407.88	0.0533	392.5	7.065	14.84	6.98	1.64
	5.20	34.56	67.68	0.00	0.0619	10.81	475.5	408.54	0.0532	391.3	7.043	14.79	6.93	1.64
	6.21	34.58	67.70	-0.00	0.0619	10.77	474.1	407.19	0.0531	389.3	7.007	14.71	6.86	1.64
	7.21	34.51	67.70	0.00	0.0622	10.84	476.9	409.54	0.0531	389.4	7.010	14.71	6.86	1.64
	8.21	34.59	67.67	0.00	0.0623	10.87	478.1	410.78	0.0530	388.7	6.997	14.70	6.84	1.64
	9.20	34.56	67.65	0.00	0.0626	10.95	481.8	414.11	0.0536	394.9	7.109	14.94	7.07	1.64
	10.20	34.59	67.65	0.00	0.0624	10.87	478.5	411.27	0.0538	396.0	7.129	14.98	7.11	1.64
	11.28	34.54	67.67	0.00	0.0624	10.89	479.1	411.59	0.0542	400.1	7.202	15.13	7.26	1.64
	12.21	34.51	67.65	-0.00	0.0622	10.86	477.8	410.61	0.0540	398.7	7.176	15.07	7.20	1.64
	13.21	34.52	67.70	-0.00	0.0624	10.88	478.7	411.04	0.0541	398.3	7.169	15.05	7.19	1.64
	14.21	34.52	67.68	-0.00	0.0623	10.88	478.7	411.19	0.0539	397.7	7.159	15.03	7.17	1.64
	15.21	34.52	67.70	-0.00	0.0625	10.94	481.2	413.22	0.0544	402.7	7.249	15.22	7.35	1.64
	16.19	34.50	67.68	0.00	0.0624	10.92	480.3	412.58	0.0541	401.1	7.219	15.16	7.29	1.64
	17.29	34.50	67.67	-0.00	0.0624	10.91	480.1	412.43	0.0541	401.1	7.219	15.16	7.29	1.64
	18.21	34.47	67.67	0.00	0.0624	10.91	480.0	412.26	0.0543	402.0	7.237	15.19	7.32	1.64
	19.19	34.47	67.68	0.00	0.0624	10.90	479.6	411.92	0.0546	403.7	7.267	15.26	7.38	1.64
	20.20	34.47	67.67	0.00	0.0624	10.89	479.3	411.66	0.0550	407.3	7.331	15.39	7.51	1.64
	21.20	34.45	67.68	0.00	0.0623	10.90	479.4	411.74	0.0551	410.6	7.391	15.52	7.63	1.64
	22.21	34.48	67.67	-0.00	0.0624	10.90	479.6	411.94	0.0557	420.2	7.563	15.88	7.97	1.64
	23.23	34.48	67.68	-0.00	0.0623	10.88	478.6	411.08	0.0552	409.3	7.367	15.47	7.58	1.64
	24.21	34.47	67.68	0.00	0.0622	10.85	477.5	410.14	0.0551	410.1	7.382	15.50	7.61	1.64
	25.21	34.48	67.67	-0.00	0.0622	10.86	477.6	410.26	0.0548	408.1	7.346	15.42	7.54	1.64
	26.21	34.44	67.65	-0.00	0.0622	10.86	477.9	410.53	0.0553	413.3	7.440	15.62	7.73	1.64
	27.22	34.50	67.68	-0.00	0.0622	10.86	477.7	410.32	0.0550	411.5	7.407	15.55	7.66	1.64
	28.20	34.47	67.68	-0.00	0.0621	10.84	477.0	409.64	0.0551	410.0	7.381	15.50	7.61	1.64
	29.19	34.52	67.65	0.00	0.0622	10.85	477.3	410.16	0.0553	410.2	7.383	15.51	7.62	1.64
	30.20	34.51	67.70	0.00	0.0621	10.83	476.7	409.38	0.0548	406.9	7.325	15.38	7.50	1.64
	31.20	34.56	67.67	-0.00	0.0621	10.83	476.7	409.56	0.0551	408.0	7.343	15.42	7.54	1.64
	32.20	34.59	67.67	0.00	0.0622	10.85	477.4	410.19	0.0550	409.4	7.369	15.48	7.59	1.64
	33.20	34.57	67.67	0.00	0.0621	10.84	476.9	409.74	0.0551	410.8	7.395	15.53	7.64	1.64
	34.20	34.58	67.70	0.00	0.0621	10.83	476.7	409.43	0.0550	410.3	7.385	15.50	7.62	1.64
	35.26	34.56	67.67	0.00	0.0621	10.83	476.6	409.53	0.0550	409.3	7.367	15.47	7.59	1.64
	36.21	34.56	67.67	0.00	0.0621	10.84	477.0	409.84	0.0553	410.8	7.395	15.53	7.64	1.64
	37.21	34.58	67.70	0.00	0.0621	10.84	477.2	409.84	0.0558	419.0	7.541	15.83	7.93	1.64
	38.28	34.56	67.70	0.00	0.0622	10.84	477.1	409.73	0.0558	416.2	7.491	15.73	7.83	1.64
	39.22	34.61	67.65	0.00	0.0621	10.85	477.3	410.30	0.0558	420.6	7.570	15.91	7.99	1.64
	40.22	34.53	67.68	-0.00	0.0621	10.84	477.0	409.78	0.0561	418.2	7.528	15.81	7.90	1.64
	41.28	34.58	67.68	0.00	0.0621	10.84	477.2	409.95	0.0560	421.6	7.588	15.94	8.02	1.64
	42.21	34.63	67.65	-0.00	0.0621	10.83	476.6	409.76	0.0561	419.8	7.556	15.88	7.96	1.64
	43.21	34.58	67.67	-0.00	0.0621	10.83	476.6	409.54	0.0562	423.0	7.613	15.99	8.07	1.64
	44.20	34.59	67.70	0.00	0.0621	10.83	476.5	409.24	0.0561	421.7	7.590	15.94	8.03	1.64
	45.29	34.59	67.67	-0.00	0.0621	10.83	476.5	409.42	0.0563	422.2	7.600	15.96	8.05	1.64
	46.27	34.59	67.68	0.00	0.0621	10.83	476.6	409.53	0.0562	423.8	7.629	16.02	8.10	1.64
	47.21	34.54	67.70	0.00	0.0621	10.83	476.7	409.35	0.0565	424.1	7.633	16.02	8.11	1.64
	48.28	34.56	67.68	0.00	0.0621	10.84	477.1	409.88	0.0566	425.7	7.662	16.09	8.16	1.64
	49.20	34.52	67.70	-0.00	0.0621	10.84	476.9	409.45	0.0566	427.2	7.689	16.14	8.22	1.64
	50.20	34.53	67.70	0.00	0.0621	10.84	476.9	409.54	0.0567	427.4	7.692	16.15	8.22	1.64
	51.20	34.48	67.68	0.00	0.0620	10.83	476.6	409.38	0.0568	429.9	7.738	16.25	8.31	1.64
	52.21	34.52	67.68	0.00	0.0621	10.82	476.3	409.12	0.0571	431.2	7.762	16.30	8.35	1.64
	53.21	34.49	67.67	-0.00	0.0621	10.83	476.6	409.40	0.0573	434.0	7.812	16.40	8.45	1.64
	54.20	34.45	67.68	0.00	0.0621	10.84	476.8	409.51	0.0575	435.0	7.829	16.44	8.48	1.64
	55.29	34.48	67.68	-0.00	0.0621	10.83	476.5	409.25	0.0573	434.4	7.819	16.42	8.46	1.64
	56.21	34.48	67.67	-0.00	0.0621	10.83	476.4	409.17	0.0574	434.1	7.814	16.41	8.45	1.64
	57.19	34.41	67.70	0.00	0.0621	10.83	476.5	409.04	0.0578	438.3	7.889	16.55	8.59	1.64
	58.20	34.41	67.70	0.00	0.0620	10.81	475.7	408.38	0.0576	436.3	7.854	16.48	8.52	1.64
	59.20	34.36	67.65	-0.00	0.0620	10.82	476.3	409.06	0.0577	440.7	7.932	16.65	8.67	1.64
	60.20	34.34	67.65	-0.00	0.0621	10.81	475.8	408.66	0.0582	442.7	7.969	16.73	8.73	1.64
	61.22	34.36	67.70	-0.00	0.0621	10.84	477.1	409.47	0.0585	446.9	8.044	16.88	8.87	1.64
	62.23	34.34	67.67	-0.00	0.0621	10.84	477.0	409.53	0.0585	446.8	8.042	16.88	8.87	1.64
	63.20	34.30	67.67	0.00	0.0622	10.84	477.0	409.52	0.0584	444.7	8.005	16.80	8.80	1.64
	64.19	34.33	67.72	0.00	0.0621	10.84	476.8	409.03	0.0584	444.7	8.005	16.79	8.80	1.64
	65.21	34.33	67.70	0.00	0.0621	10.83	476.7	409.05	0.0585	445.5	8.019	16.82	8.82	1.64
	66.21	34.33	67.68	-0.00	0.0621	10.83	476.7	409.23	0.0586	446.7	8.041	16.87	8.87	1.64
	67.19	34.30	67.72	0.00	0.0620	10.82	476.3	408.57	0.0585	446.3	8.033	16.84	8.85	1.64
	68.20	34.31	67.70	-0.00	0.0621	10.83	476.6	408.97	0.0586	448.0	8.064	16.92	8.91	1.64
	69.20	34.29	67.67	0.00	0.0621	10.83	476.6	409.13	0.0587	448.7	8.076	16.95	8.93	1.64
	70.19	34.30	67.68	0.00	0.0621	10.83	476.7	409.18	0.0588	449.7	8.095	16.99	8.96	1.64
	71.22	34.31	67.67	0.00	0.0620	10.82	475.9	408.56	0.0587	448.6	8.074	16.94	8.93	1.64
	72.20	34.33	67.67	0.00	0.0621	10.82	476.1	408.77	0.0587	449.1	8.083	16.96	8.94	1.64
	73.21	34.32	67.68	0.00	0.0620	10.83	476.3	408.89	0.0589	452.0	8.135	17.07	9.04	1.64
	74.19	34.37	67.67	0.00	0.0620	10.82	476.1	408.78	0.0591	453.2	8.158	17.12	9.08	1.64
	75.19	34.38	67.68	0.00	0.0621	10.82	476.0	408.68	0.0592	452.9	8.152	17.11	9.07	1.64
	76.19	34.38	67.68	0.00	0.0620	10.81	475.8	408.57	0.0592	454.2	8.176	17.16	9.12	1.64
	77.20	34.39	67.67	-0.00	0.0620	10.82	476.0	408.78	0.0593	454.2	8.175	17.16	9.11	1.64
	78.20	34.37	67.70	0.00	0.0620	10.82	475.9	408.44	0.0592	454.7	8.185	17.17	9.13	1.64
	79.22	34.41	67.67	0.00	0.0620	10.80	475.4	408.25	0.0592	454.7	8.185	17.18	9.13	1.64
	80.20	34.38	67.68	-0.00	0.0620	10.81	475.4	408.22	0.0593	455.2	8.193	17.20	9.15	1.64
	81.21	34.39	67.70	-0.00	0.0620	10.80	475.1	407.81	0.0592	455.2	8.194	17.19	9.15	1.64
	82.21	34.43	67.67	-0.00	0.0620	10.80	475.1	407.99	0.0594	455.2	8.193	17.20	9.15	1.64
	83.20	34.44	67.70	-0.00	0.0620	10.79	474.9	407.74	0.0594	455.3	8.195	17.20	9.15	1.64
	84.27	34.40	67.67	0.00	0.0620	10.80	475.2	408.09	0.0595	456.4	8.215	17.24	9.19	1.64
	85.22	34.46	67.72	-0.00	0.0619	10.80	475.2	407.83	0.0595	457.9	8.243	17.29	9.24	1.64
	86.22	34.46	67.65	-0.00	0.0619	10.80	475.1	408.18	0.0597	458.9	8.261	17.35	9.27	1.64
	87.20	34.44	67.68	-0.00	0.0619	10.79	474.9	407.87	0.0596	458.9	8.260	17.34	9.27	1.64
	88.19	34.38	67.67	0.00	0.0619	10.80	475.1	408.01	0.0597	459.1	8.264	17.35	9.27	1.64
	89.22	34.36	67.70	0.00	0.0620	10.81	475.5	408.14	0.0599	462.1	8.319	17.45	9.37	1.64
	90.20	34.38	67.67	-0.00	0.0619	10.80	475.2	408.08	0.0599	461.9	8.314	17.45	9.36	1.65
	91.21	34.38	67.65	-0.00	0.0620	10.81	475.4	408.39	0.0601	463.4	8.342	17.52	9.41	1.64
	92.20	34.38	67.68	0.00	0.0619	10.80	475.1	407.99	0.0601	464.5	8.360	17.55	9.45	1.64
	93.21	34.44	67.67	-0.00	0.0620	10.80	475.4	408.26	0.0602	464.8	8.366	17.56	9.46	1.64
	94.21	34.38	67.65	-0.00	0.0620	10.80	475.4	408.34	0.0602	464.7	8.364	17.56	9.45	1.64
	95.19	34.36	67.70	0.00	0.0620	10.80	475.3	407.92	0.0602	465.2	8.373	17.57	9.47	1.64
	96.21	34.41	67.68	0.00	0.0619	10.80	475.2	408.06	0.0602	465.5	8.380	17.59	9.48	1.65
	97.20	34.41	67.68	-0.00	0.0619	10.80	475.2	408.03	0.0601	464.1	8.354	17.54	9.44	1.64
	98.19	34.38	67.68	0.00	0.0619	10.80	475.1	407.96	0.0602	465.6	8.381	17.59	9.48	1.64
	99.20	34.38	67.67	0.00	0.0619	10.79	474.7	407.66	0.0602	465.2	8.373	17.57	9.47	1.65
	100.20	34.38	67.72	0.00	0.0619	10.79	474.7	407.33	0.0602	465.0	8.370	17.55	9.46	1.65
	101.26	34.39	67.70	0.00	0.0620	10.79	474.8	407.54	0.0605	466.9	8.405	17.64	9.53	1.64
	102.21	34.40	67.68	-0.00	0.0619	10.80	475.1	408.00	0.0605	469.3	8.448	17.73	9.60	1.65
	103.19	34.41	67.70	0.00	0.0619	10.78	474.5	407.35	0.0604	468.4	8.431	17.69	9.57	1.65
	104.19	34.44	67.70	-0.00	0.0619	10.78	474.5	407.33	0.0605	468.9	8.440	17.71	9.59	1.65
	105.21	34.39	67.68	-0.00	0.0619	10.78	474.4	407.32	0.0606	470.4	8.467	17.77	9.63	1.64
	106.19	34.41	67.67	0.00	0.0619	10.78	474.5	407.48	0.0607	470.4	8.468	17.78	9.64	1.65
	107.20	34.43	67.70	-0.00	0.0619	10.78	474.5	407.33	0.0605	469.2	8.446	17.72	9.60	1.65
	108.22	34.38	67.67	-0.00	0.0619	10.78	474.5	407.42	0.0607	470.7	8.472	17.78	9.64	1.64
	109.22	34.39	67.70	-0.00	0.0619	10.78	474.5	407.32	0.0608	471.9	8.494	17.82	9.68	1.65
	110.22	34.44	67.67	0.00	0.0619	10.79	474.7	407.71	0.0610	474.1	8.533	17.91	9.75	1.64
	111.21	34.41	67.68	0.00	0.0618	10.78	474.3	407.31	0.0609	472.7	8.508	17.86	9.71	1.65
	112.20	34.41	67.70	0.00	0.0619	10.78	474.4	407.29	0.0610	473.8	8.528	17.89	9.74	1.65
	113.19	34.41	67.67	0.00	0.0619	10.77	474.1	407.12	0.0610	474.1	8.533	17.91	9.75	1.65
	114.21	34.44	67.65	0.00	0.0618	10.78	474.3	407.48	0.0610	473.9	8.529	17.91	9.75	1.64
	115.21	34.40	67.70	0.00	0.0618	10.78	474.2	407.03	0.0610	474.9	8.548	17.94	9.78	1.65
	116.20	34.40	67.68	-0.00	0.0618	10.77	474.0	407.00	0.0610	474.5	8.541	17.93	9.77	1.65
	117.20	34.37	67.70	0.00	0.0618	10.76	473.7	406.55	0.0611	474.1	8.534	17.91	9.75	1.65
	118.20	34.38	67.70	-0.00	0.0618	10.77	473.8	406.63	0.0611	474.4	8.538	17.91	9.76	1.65
	119.20	34.38	67.70	-0.00	0.0618	10.77	473.9	406.80	0.0609	473.7	8.526	17.89	9.74	1.65
	120.22	34.44	67.67	-0.00	0.0618	10.77	474.0	407.08	0.0610	473.7	8.526	17.90	9.74	1.65
