Jul 25 2015 at 9:55:28
Frequency: 1.00Hz.
CO2
Zero:  Value:0.95  Date:18 Mar 2005	 at 07:22:33	
Span:  Value:1.00  Date:18 Mar 2005	 at 07:25:09	
H2O
Zero:  Value:0.71  Date:18 Mar 2005	 at 07:52:31	
Span:  Value:0.99  Date:18 Mar 2005	 at 11:44:01	
	Relative Time	Temperature	Pressure	Aux Input	CO2 Absorptance	CO2 mmol/m3	CO2 mg/m3	CO2 umol/mol	H2O Absorptance	H2O mmol/m3	H2O g/m3	H2O mmol/mol	H2O(°C)	Cooler Voltage
	0.17	19.51	67.81	-0.00	0.0621	10.83	476.3	388.46	0.0569	431.1	7.759	15.47	7.61	1.53
	1.16	19.55	67.81	-0.00	0.0622	10.83	476.6	388.75	0.0568	433.0	7.795	15.54	7.68	1.53
	2.15	19.51	67.81	-0.00	0.0620	10.81	475.8	388.07	0.0568	429.9	7.738	15.43	7.57	1.53
	3.15	19.50	67.81	0.00	0.0620	10.80	475.3	387.63	0.0568	427.3	7.691	15.33	7.48	1.52
	4.13	19.48	67.83	0.00	0.0620	10.80	475.4	387.52	0.0567	428.7	7.717	15.38	7.53	1.53
	5.15	19.46	67.81	0.00	0.0620	10.81	475.7	387.93	0.0567	428.7	7.716	15.38	7.53	1.53
	6.13	19.46	67.81	0.00	0.0620	10.82	475.9	388.04	0.0568	427.3	7.691	15.33	7.48	1.53
	7.16	19.46	67.81	-0.00	0.0620	10.81	475.8	387.98	0.0573	430.9	7.756	15.46	7.60	1.52
	8.14	19.46	67.81	0.00	0.0620	10.80	475.2	387.48	0.0572	432.9	7.791	15.53	7.67	1.53
	9.16	19.46	67.83	-0.00	0.0621	10.82	476.0	387.99	0.0575	434.6	7.822	15.59	7.73	1.53
	10.14	19.46	67.83	0.00	0.0620	10.80	475.1	387.26	0.0577	437.1	7.868	15.68	7.81	1.53
	11.15	19.48	67.81	-0.00	0.0618	10.78	474.4	386.85	0.0572	433.8	7.808	15.56	7.70	1.53
	12.15	19.49	67.83	0.00	0.0618	10.76	473.6	386.09	0.0581	439.5	7.912	15.77	7.90	1.53
	13.15	19.49	67.78	-0.00	0.0618	10.76	473.5	386.24	0.0590	449.9	8.099	16.15	8.24	1.52
	14.15	19.49	67.81	-0.00	0.0619	10.75	473.2	385.89	0.0578	441.4	7.946	15.84	7.96	1.53
	15.21	19.51	67.88	0.00	0.0618	10.74	472.5	384.89	0.0571	432.1	7.778	15.49	7.65	1.53
	16.16	19.48	67.81	-0.00	0.0618	10.76	473.5	386.13	0.0573	433.0	7.794	15.54	7.68	1.53
	17.14	19.44	67.81	0.00	0.0617	10.73	472.3	385.11	0.0572	432.3	7.781	15.51	7.65	1.53
	18.13	19.44	67.81	0.00	0.0618	10.74	472.8	385.48	0.0579	441.0	7.938	15.82	7.94	1.53
	19.16	19.48	67.81	-0.00	0.0616	10.73	472.2	385.08	0.0575	437.1	7.868	15.68	7.82	1.53
	20.14	19.51	67.81	-0.00	0.0614	10.70	470.9	384.08	0.0578	439.8	7.916	15.78	7.91	1.53
	21.14	19.53	67.83	0.00	0.0614	10.67	469.4	382.69	0.0578	437.0	7.866	15.68	7.81	1.52
	22.15	19.53	67.81	0.00	0.0615	10.68	470.0	383.28	0.0582	440.3	7.925	15.80	7.92	1.53
	23.15	19.55	67.83	0.00	0.0614	10.68	470.0	383.21	0.0585	445.8	8.025	16.00	8.11	1.53
	24.23	19.55	67.83	-0.00	0.0613	10.66	469.2	382.54	0.0583	443.3	7.980	15.90	8.03	1.53
	25.16	19.55	67.81	0.00	0.0612	10.64	468.3	381.94	0.0588	447.3	8.051	16.05	8.16	1.52
	26.22	19.51	67.81	-0.00	0.0613	10.63	467.8	381.54	0.0593	456.1	8.209	16.36	8.44	1.53
	27.16	19.53	67.83	-0.00	0.0612	10.63	467.5	381.17	0.0588	449.8	8.096	16.13	8.24	1.52
	28.14	19.50	67.81	0.00	0.0611	10.61	467.0	380.86	0.0590	453.6	8.165	16.28	8.36	1.53
	29.16	19.51	67.81	-0.00	0.0612	10.63	467.8	381.55	0.0592	455.2	8.193	16.33	8.41	1.53
	30.16	19.51	67.81	-0.00	0.0611	10.58	465.6	379.74	0.0591	454.2	8.175	16.30	8.38	1.53
	31.15	19.51	67.81	0.00	0.0612	10.63	467.5	381.28	0.0595	455.1	8.191	16.33	8.41	1.52
	32.14	19.49	67.83	-0.00	0.0612	10.63	467.6	381.15	0.0595	456.8	8.223	16.39	8.47	1.53
	33.13	19.50	67.81	0.00	0.0612	10.62	467.4	381.12	0.0593	454.8	8.187	16.32	8.40	1.53
	34.15	19.50	67.81	-0.00	0.0613	10.64	468.2	381.78	0.0591	452.4	8.143	16.23	8.32	1.53
	35.13	19.50	67.81	0.00	0.0615	10.69	470.4	383.60	0.0588	449.7	8.094	16.14	8.23	1.53
	36.13	19.50	67.81	0.00	0.0613	10.63	467.7	381.44	0.0590	452.2	8.139	16.23	8.31	1.53
	37.14	19.50	67.81	0.00	0.0614	10.69	470.2	383.45	0.0589	449.8	8.096	16.14	8.24	1.53
	38.16	19.50	67.83	0.00	0.0611	10.62	467.4	381.02	0.0594	456.0	8.208	16.35	8.44	1.53
	39.16	19.49	67.81	-0.00	0.0610	10.59	465.8	379.85	0.0596	457.2	8.230	16.41	8.48	1.53
	40.14	19.49	67.83	-0.00	0.0612	10.62	467.4	380.99	0.0595	456.5	8.216	16.37	8.45	1.53
	41.15	19.53	67.81	-0.00	0.0612	10.62	467.4	381.23	0.0594	456.2	8.212	16.37	8.45	1.53
	42.15	19.48	67.81	-0.00	0.0612	10.64	468.1	381.66	0.0593	455.4	8.197	16.34	8.42	1.53
	43.13	19.51	67.81	0.00	0.0612	10.61	467.0	380.88	0.0596	457.9	8.243	16.43	8.50	1.53
	44.15	19.51	67.81	-0.00	0.0611	10.61	466.9	380.77	0.0599	460.9	8.297	16.54	8.60	1.53
	45.13	19.51	67.81	0.00	0.0611	10.61	466.8	380.74	0.0601	464.2	8.356	16.66	8.70	1.53
	46.15	19.53	67.81	-0.00	0.0610	10.58	465.5	379.70	0.0599	460.8	8.294	16.54	8.60	1.53
	47.16	19.51	67.81	0.00	0.0612	10.61	466.9	380.78	0.0600	462.6	8.327	16.60	8.65	1.53
	48.14	19.53	67.81	0.00	0.0611	10.60	466.4	380.37	0.0599	461.2	8.302	16.55	8.61	1.53
	49.16	19.55	67.83	0.00	0.0611	10.61	466.8	380.56	0.0602	463.5	8.344	16.63	8.68	1.53
	50.16	19.53	67.85	-0.00	0.0610	10.58	465.4	379.33	0.0602	464.4	8.359	16.65	8.71	1.53
	51.15	19.54	67.81	0.00	0.0611	10.58	465.7	379.87	0.0601	462.6	8.327	16.60	8.65	1.53
	52.15	19.55	67.83	-0.00	0.0612	10.62	467.3	381.00	0.0600	462.2	8.320	16.58	8.64	1.53
	53.17	19.53	67.83	-0.00	0.0611	10.60	466.3	380.18	0.0608	469.0	8.442	16.82	8.86	1.53
	54.21	19.53	67.81	0.00	0.0612	10.60	466.5	380.48	0.0605	469.0	8.442	16.83	8.86	1.53
	55.13	19.53	67.81	0.00	0.0612	10.62	467.3	381.10	0.0604	467.5	8.415	16.78	8.81	1.53
	56.15	19.53	67.80	-0.00	0.0611	10.63	467.5	381.33	0.0603	465.9	8.386	16.72	8.76	1.53
	57.13	19.51	67.78	0.00	0.0610	10.58	465.6	379.83	0.0604	467.0	8.406	16.76	8.79	1.53
	58.16	19.51	67.79	-0.00	0.0610	10.58	465.7	379.90	0.0606	468.8	8.438	16.83	8.85	1.53
	59.12	19.51	67.81	0.00	0.0610	10.58	465.4	379.60	0.0608	471.3	8.484	16.91	8.93	1.53
	60.14	19.49	67.83	0.00	0.0611	10.59	466.1	379.96	0.0608	471.7	8.490	16.92	8.94	1.53
	61.14	19.51	67.83	-0.00	0.0609	10.58	465.5	379.52	0.0607	471.0	8.479	16.90	8.92	1.53
	62.14	19.50	67.81	-0.00	0.0609	10.56	464.5	378.83	0.0608	470.3	8.466	16.88	8.90	1.53
	63.15	19.51	67.83	0.00	0.0609	10.55	464.2	378.46	0.0608	470.4	8.467	16.87	8.90	1.53
	64.16	19.51	67.83	-0.00	0.0610	10.57	465.2	379.24	0.0608	471.8	8.492	16.92	8.94	1.53
	65.15	19.48	67.81	0.00	0.0609	10.58	465.4	379.53	0.0610	473.2	8.518	16.98	8.99	1.53
	66.16	19.51	67.81	-0.00	0.0610	10.56	464.9	379.11	0.0611	475.4	8.556	17.06	9.05	1.53
	67.14	19.53	67.83	0.00	0.0609	10.56	464.8	378.89	0.0612	475.5	8.559	17.06	9.06	1.53
	68.14	19.53	67.81	0.00	0.0609	10.56	464.5	378.89	0.0612	474.9	8.549	17.04	9.04	1.53
	69.14	19.53	67.81	0.00	0.0609	10.54	463.9	378.40	0.0612	478.0	8.604	17.15	9.14	1.53
	70.15	19.53	67.81	0.00	0.0610	10.58	465.6	379.77	0.0610	474.1	8.534	17.02	9.02	1.53
	71.14	19.53	67.81	0.00	0.0608	10.54	463.8	378.29	0.0612	476.6	8.579	17.10	9.10	1.53
	72.14	19.51	67.81	0.00	0.0609	10.56	464.5	378.82	0.0612	475.5	8.559	17.06	9.06	1.53
	73.13	19.51	67.83	0.00	0.0611	10.59	465.8	379.73	0.0609	472.1	8.497	16.93	8.95	1.53
	74.13	19.55	67.81	0.00	0.0611	10.59	466.0	380.05	0.0606	469.7	8.455	16.86	8.88	1.53
	75.15	19.55	67.81	-0.00	0.0611	10.60	466.3	380.36	0.0603	467.1	8.408	16.76	8.80	1.53
	76.14	19.55	67.81	-0.00	0.0609	10.58	465.3	379.55	0.0610	472.1	8.499	16.94	8.96	1.53
	77.16	19.55	67.81	0.00	0.0608	10.53	463.5	378.04	0.0616	480.0	8.639	17.23	9.20	1.53
	78.16	19.55	67.83	-0.00	0.0607	10.53	463.1	377.59	0.0616	481.3	8.663	17.27	9.24	1.53
	79.16	19.54	67.83	0.00	0.0606	10.50	462.1	376.76	0.0617	481.9	8.675	17.29	9.26	1.53
	80.15	19.55	67.81	-0.00	0.0607	10.53	463.2	377.80	0.0614	479.8	8.636	17.22	9.19	1.53
	81.15	19.54	67.81	0.00	0.0608	10.55	464.2	378.61	0.0614	480.7	8.653	17.25	9.22	1.53
	82.14	19.55	67.81	0.00	0.0608	10.51	462.6	377.32	0.0617	485.6	8.741	17.43	9.37	1.53
	83.13	19.53	67.80	0.00	0.0610	10.57	465.2	379.41	0.0601	465.0	8.370	16.69	8.73	1.53
	84.15	19.54	67.81	-0.00	0.0609	10.55	464.2	378.66	0.0609	470.7	8.473	16.89	8.91	1.53
	85.13	19.55	67.81	0.00	0.0608	10.54	463.6	378.17	0.0611	476.1	8.570	17.09	9.08	1.53
	86.14	19.53	67.81	0.00	0.0608	10.55	464.1	378.54	0.0611	475.4	8.557	17.06	9.06	1.53
	87.14	19.54	67.81	-0.00	0.0607	10.52	462.9	377.56	0.0615	478.5	8.612	17.17	9.15	1.53
	88.22	19.55	67.81	-0.00	0.0609	10.57	465.0	379.31	0.0609	473.2	8.518	16.98	8.99	1.53
	89.12	19.54	67.83	0.00	0.0609	10.57	465.1	379.18	0.0612	476.1	8.570	17.08	9.08	1.53
	90.15	19.56	67.81	-0.00	0.0608	10.55	464.2	378.64	0.0616	478.9	8.620	17.19	9.17	1.53
	91.15	19.56	67.81	-0.00	0.0607	10.53	463.1	377.78	0.0627	490.2	8.823	17.59	9.51	1.53
	92.17	19.56	67.81	-0.00	0.0607	10.52	462.9	377.56	0.0627	493.8	8.888	17.72	9.62	1.53
	93.15	19.54	67.83	-0.00	0.0605	10.48	461.1	375.96	0.0623	489.6	8.813	17.56	9.49	1.53
	94.15	19.56	67.81	-0.00	0.0606	10.50	461.9	376.76	0.0625	490.7	8.833	17.61	9.53	1.53
	95.15	19.56	67.81	0.00	0.0607	10.51	462.4	377.20	0.0627	492.6	8.866	17.68	9.59	1.53
	96.13	19.58	67.81	0.00	0.0606	10.49	461.6	376.52	0.0628	493.2	8.877	17.70	9.60	1.53
	97.14	19.58	67.81	0.00	0.0608	10.53	463.5	378.07	0.0625	489.9	8.818	17.58	9.50	1.53
	98.12	19.58	67.81	0.00	0.0608	10.54	463.9	378.39	0.0621	487.2	8.770	17.49	9.42	1.53
	99.14	19.58	67.81	0.00	0.0607	10.53	463.4	378.01	0.0623	487.6	8.777	17.50	9.44	1.53
	100.14	19.56	67.83	-0.00	0.0607	10.50	461.9	376.59	0.0626	491.3	8.844	17.63	9.55	1.53
	101.14	19.58	67.81	0.00	0.0606	10.50	462.2	377.02	0.0627	492.3	8.862	17.67	9.58	1.53
	102.15	19.56	67.81	-0.00	0.0608	10.53	463.5	378.07	0.0623	488.3	8.790	17.53	9.46	1.53
	103.15	19.58	67.83	0.00	0.0609	10.55	464.3	378.57	0.0620	485.0	8.730	17.40	9.36	1.53
	104.22	19.58	67.81	-0.00	0.0608	10.53	463.5	378.09	0.0622	487.3	8.771	17.49	9.43	1.53
	105.14	19.60	67.83	-0.00	0.0609	10.54	464.0	378.34	0.0621	486.3	8.753	17.45	9.40	1.53
	106.14	19.60	67.81	0.00	0.0608	10.55	464.1	378.62	0.0622	486.3	8.753	17.46	9.40	1.53
	107.13	19.58	67.81	0.00	0.0608	10.54	463.6	378.17	0.0622	486.2	8.752	17.45	9.39	1.53
	108.16	19.60	67.81	-0.00	0.0607	10.53	463.2	377.89	0.0624	488.6	8.795	17.54	9.47	1.53
	109.15	19.59	67.81	0.00	0.0608	10.54	463.7	378.25	0.0621	487.1	8.768	17.48	9.42	1.53
	110.14	19.59	67.81	0.00	0.0609	10.55	464.3	378.80	0.0618	483.5	8.703	17.36	9.31	1.53
	111.15	19.61	67.78	0.00	0.0609	10.56	464.6	379.15	0.0616	481.0	8.657	17.27	9.23	1.53
	112.15	19.64	67.83	-0.00	0.0609	10.56	464.6	378.94	0.0619	482.1	8.678	17.30	9.27	1.53
