Jul 25 2015 at 16:27:05
Frequency: 1.00Hz.
CO2
Zero:  Value:0.95  Date:18 Mar 2005	 at 07:22:33	
Span:  Value:1.00  Date:18 Mar 2005	 at 07:25:09	
H2O
Zero:  Value:0.71  Date:18 Mar 2005	 at 07:52:31	
Span:  Value:0.99  Date:18 Mar 2005	 at 11:44:01	
	Relative Time	Temperature	Pressure	Aux Input	CO2 Absorptance	CO2 mmol/m3	CO2 mg/m3	CO2 umol/mol	H2O Absorptance	H2O mmol/m3	H2O g/m3	H2O mmol/mol	H2O(°C)	Cooler Voltage
	0.45	33.00	67.70	-0.00	0.0614	10.66	469.0	400.80	0.0795	700.4	12.607	26.33	15.64	1.68
	1.44	33.04	67.70	0.00	0.0612	10.62	467.3	399.35	0.0818	729.4	13.129	27.43	16.27	1.67
	2.45	33.04	67.65	0.00	0.0615	10.68	469.8	401.76	0.0780	673.7	12.127	25.35	15.03	1.68
	3.46	33.07	67.70	-0.00	0.0614	10.67	469.4	401.20	0.0788	695.6	12.521	26.16	15.53	1.67
	4.45	33.08	67.65	0.00	0.0614	10.68	469.7	401.73	0.0777	669.6	12.053	25.20	14.94	1.67
	5.45	33.10	67.70	0.00	0.0612	10.64	468.1	400.08	0.0787	690.5	12.429	25.97	15.42	1.68
	6.44	33.10	67.68	0.00	0.0613	10.64	468.2	400.33	0.0776	670.4	12.068	25.22	14.96	1.68
	7.46	33.09	67.68	0.00	0.0613	10.64	468.3	400.38	0.0781	686.8	12.362	25.84	15.33	1.67
	8.46	33.05	67.65	0.00	0.0613	10.63	467.8	400.13	0.0789	705.2	12.694	26.54	15.75	1.67
	9.45	33.08	67.68	0.00	0.0613	10.64	468.3	400.39	0.0804	710.2	12.784	26.72	15.86	1.67
	10.44	33.11	67.70	0.00	0.0613	10.64	468.1	400.14	0.0813	726.8	13.082	27.34	16.22	1.67
	11.44	33.06	67.68	0.00	0.0613	10.64	468.0	400.12	0.0810	727.6	13.096	27.37	16.23	1.68
	12.45	33.10	67.68	0.00	0.0612	10.63	467.6	399.83	0.0823	732.2	13.179	27.55	16.34	1.68
	13.51	33.08	67.68	0.00	0.0613	10.63	467.7	399.85	0.0803	735.5	13.239	27.67	16.41	1.67
	14.45	33.11	67.70	-0.00	0.0613	10.64	468.0	400.09	0.0788	693.1	12.476	26.07	15.48	1.67
	15.46	33.11	67.68	-0.00	0.0613	10.66	469.0	401.08	0.0769	666.1	11.989	25.06	14.86	1.67
	16.46	33.08	67.67	-0.00	0.0613	10.66	468.9	400.91	0.0770	668.8	12.039	25.16	14.92	1.67
	17.44	33.13	67.70	0.00	0.0613	10.66	469.0	400.91	0.0752	648.3	11.670	24.39	14.44	1.68
	18.44	33.13	67.70	0.00	0.0613	10.64	468.1	400.16	0.0746	640.0	11.519	24.07	14.24	1.67
	19.52	33.10	67.72	-0.00	0.0613	10.65	468.6	400.40	0.0741	631.8	11.373	23.75	14.04	1.67
	20.45	33.11	67.70	-0.00	0.0614	10.65	468.6	400.58	0.0730	617.7	11.119	23.23	13.70	1.67
	21.47	33.13	67.70	-0.00	0.0613	10.66	468.9	400.87	0.0726	608.5	10.954	22.89	13.47	1.67
	22.45	33.12	67.70	0.00	0.0614	10.66	468.9	400.80	0.0730	616.0	11.087	23.17	13.65	1.67
	23.45	33.12	67.70	0.00	0.0615	10.68	469.9	401.71	0.0727	614.4	11.060	23.11	13.61	1.68
	24.45	33.13	67.70	0.00	0.0614	10.68	469.9	401.67	0.0725	610.1	10.982	22.95	13.51	1.67
	25.44	33.10	67.68	0.00	0.0614	10.67	469.7	401.60	0.0724	608.7	10.957	22.90	13.47	1.68
	26.44	33.12	67.70	0.00	0.0615	10.68	470.0	401.76	0.0724	608.3	10.949	22.88	13.46	1.68
	27.43	33.13	67.70	0.00	0.0615	10.68	470.0	401.75	0.0727	612.3	11.022	23.03	13.56	1.67
	28.45	33.04	67.70	-0.00	0.0616	10.69	470.6	402.14	0.0716	603.0	10.855	22.67	13.32	1.68
	29.47	33.07	67.70	-0.00	0.0614	10.69	470.4	402.02	0.0721	602.8	10.850	22.67	13.32	1.68
	30.45	32.95	67.68	0.00	0.0615	10.68	470.1	401.74	0.0717	599.9	10.798	22.56	13.24	1.67
	31.45	32.95	67.68	0.00	0.0614	10.68	469.8	401.54	0.0716	598.9	10.780	22.52	13.21	1.67
	32.45	32.96	67.70	0.00	0.0615	10.69	470.2	401.70	0.0715	597.8	10.760	22.47	13.19	1.67
	33.45	33.00	67.68	0.00	0.0616	10.71	471.1	402.72	0.0715	597.8	10.761	22.49	13.19	1.68
	34.43	33.02	67.68	0.00	0.0615	10.68	470.0	401.77	0.0712	593.9	10.690	22.34	13.09	1.68
	35.44	33.04	67.65	0.00	0.0615	10.69	470.5	402.36	0.0710	592.8	10.671	22.31	13.06	1.68
	36.46	33.06	67.68	-0.00	0.0614	10.68	470.0	401.80	0.0707	588.2	10.588	22.13	12.94	1.67
	37.44	33.04	67.70	0.00	0.0614	10.68	469.9	401.62	0.0707	587.6	10.576	22.09	12.92	1.68
	38.44	33.09	67.68	0.00	0.0616	10.71	471.1	402.84	0.0708	588.5	10.593	22.14	12.95	1.68
	39.44	33.10	67.65	0.00	0.0615	10.69	470.5	402.49	0.0708	588.5	10.593	22.15	12.95	1.68
	40.44	33.11	67.68	0.00	0.0615	10.71	471.1	402.83	0.0708	589.3	10.608	22.17	12.97	1.68
	41.43	33.06	67.68	0.00	0.0614	10.68	469.9	401.72	0.0706	587.8	10.580	22.11	12.93	1.68
	42.43	33.11	67.68	0.00	0.0614	10.67	469.7	401.62	0.0706	585.9	10.547	22.05	12.89	1.68
	43.45	33.06	67.68	0.00	0.0615	10.71	471.2	402.90	0.0707	589.1	10.604	22.16	12.97	1.68
	44.46	33.13	67.72	-0.00	0.0615	10.70	470.9	402.44	0.0707	588.6	10.595	22.13	12.96	1.67
	45.44	33.09	67.70	0.00	0.0614	10.67	469.6	401.37	0.0704	585.8	10.544	22.03	12.88	1.68
	46.46	33.04	67.70	0.00	0.0614	10.67	469.5	401.26	0.0705	585.4	10.537	22.01	12.87	1.68
	47.53	32.93	67.70	-0.00	0.0615	10.68	470.0	401.51	0.0707	586.6	10.559	22.05	12.90	1.68
	48.44	32.91	67.68	0.00	0.0615	10.69	470.5	402.09	0.0706	588.0	10.584	22.11	12.93	1.68
	49.45	32.97	67.67	-0.00	0.0614	10.67	469.4	401.19	0.0705	584.9	10.529	22.00	12.85	1.68
	50.53	32.98	67.70	-0.00	0.0614	10.67	469.3	400.98	0.0705	584.2	10.516	21.96	12.83	1.68
	51.45	33.00	67.70	-0.00	0.0613	10.67	469.5	401.21	0.0703	584.6	10.523	21.98	12.85	1.68
	52.43	33.02	67.70	0.00	0.0613	10.66	469.2	401.00	0.0703	584.0	10.513	21.96	12.83	1.68
	53.45	33.10	67.68	0.00	0.0614	10.67	469.6	401.56	0.0704	584.9	10.529	22.01	12.86	1.67
	54.45	33.15	67.70	0.00	0.0614	10.66	469.2	401.09	0.0704	582.6	10.487	21.92	12.80	1.68
	55.44	33.17	67.65	-0.00	0.0614	10.67	469.6	401.78	0.0704	584.2	10.516	21.99	12.84	1.67
	56.44	33.07	67.68	0.00	0.0615	10.69	470.4	402.19	0.0706	586.8	10.563	22.08	12.91	1.68
	57.53	33.12	67.68	-0.00	0.0614	10.67	469.5	401.45	0.0703	584.6	10.523	22.00	12.85	1.68
	58.45	33.11	67.70	-0.00	0.0615	10.67	469.3	401.19	0.0705	583.3	10.500	21.94	12.82	1.68
	59.47	33.08	67.68	-0.00	0.0615	10.71	471.2	402.88	0.0706	587.9	10.583	22.12	12.94	1.68
	60.47	33.13	67.70	-0.00	0.0615	10.70	471.0	402.64	0.0706	586.9	10.564	22.07	12.91	1.68
	61.45	33.06	67.70	-0.00	0.0616	10.71	471.4	402.85	0.0708	589.3	10.608	22.16	12.97	1.67
	62.45	33.04	67.70	0.00	0.0614	10.67	469.5	401.19	0.0705	585.8	10.544	22.03	12.88	1.68
	63.46	33.04	67.73	-0.00	0.0614	10.66	469.2	400.79	0.0705	586.6	10.559	22.05	12.90	1.68
	64.46	33.04	67.70	-0.00	0.0614	10.69	470.4	401.98	0.0707	589.0	10.603	22.15	12.96	1.68
	65.46	33.00	67.68	-0.00	0.0614	10.68	469.9	401.61	0.0706	586.5	10.557	22.06	12.89	1.68
	66.46	33.00	67.70	-0.00	0.0614	10.66	469.1	400.86	0.0706	586.1	10.549	22.03	12.88	1.68
	67.44	33.00	67.70	0.00	0.0615	10.68	469.9	401.53	0.0706	586.7	10.561	22.06	12.90	1.68
	68.45	33.00	67.70	0.00	0.0614	10.68	470.1	401.71	0.0706	586.8	10.562	22.06	12.90	1.68
	69.45	33.00	67.68	-0.00	0.0614	10.67	469.4	401.22	0.0703	583.9	10.511	21.96	12.83	1.68
	70.44	32.98	67.68	0.00	0.0614	10.66	469.0	400.88	0.0702	580.0	10.440	21.81	12.72	1.68
	71.45	32.98	67.70	0.00	0.0615	10.70	471.0	402.43	0.0709	590.7	10.632	22.21	13.00	1.68
	72.45	32.97	67.70	0.00	0.0615	10.69	470.6	402.05	0.0710	590.3	10.626	22.19	12.99	1.68
	73.45	32.98	67.70	0.00	0.0614	10.67	469.3	401.00	0.0709	588.7	10.597	22.13	12.95	1.68
	74.44	33.00	67.70	0.00	0.0614	10.69	470.2	401.81	0.0710	592.8	10.670	22.29	13.06	1.68
	75.44	33.00	67.70	0.00	0.0614	10.67	469.4	401.12	0.0709	591.3	10.643	22.23	13.02	1.68
	76.44	33.02	67.68	0.00	0.0615	10.69	470.4	402.09	0.0712	593.0	10.674	22.31	13.07	1.68
	77.45	33.02	67.70	0.00	0.0614	10.67	469.6	401.25	0.0717	598.1	10.766	22.49	13.20	1.68
	78.45	33.02	67.70	0.00	0.0614	10.67	469.5	401.19	0.0719	600.8	10.815	22.59	13.27	1.68
	79.44	33.00	67.68	0.00	0.0614	10.67	469.4	401.25	0.0724	606.1	10.911	22.80	13.40	1.68
	80.47	33.04	67.68	-0.00	0.0613	10.66	469.0	400.95	0.0722	607.1	10.928	22.84	13.43	1.68
	81.45	33.04	67.70	0.00	0.0614	10.67	469.6	401.32	0.0732	619.2	11.146	23.28	13.73	1.68
	82.45	33.08	67.68	0.00	0.0613	10.66	468.9	400.92	0.0725	612.8	11.031	23.05	13.57	1.68
	83.46	33.09	67.67	-0.00	0.0615	10.69	470.2	402.05	0.0725	610.0	10.981	22.95	13.50	1.68
	84.44	33.07	67.68	-0.00	0.0613	10.65	468.6	400.67	0.0724	606.3	10.914	22.81	13.41	1.68
	85.44	33.08	67.68	-0.00	0.0614	10.67	469.3	401.25	0.0727	613.7	11.046	23.09	13.59	1.68
	86.44	33.07	67.65	-0.00	0.0614	10.67	469.6	401.69	0.0730	615.7	11.082	23.17	13.64	1.68
	87.44	33.08	67.70	0.00	0.0613	10.64	468.3	400.24	0.0732	619.4	11.149	23.29	13.74	1.68
	88.45	33.06	67.70	-0.00	0.0614	10.66	468.9	400.77	0.0730	617.9	11.123	23.24	13.70	1.68
	89.45	33.09	67.67	-0.00	0.0613	10.65	468.5	400.64	0.0737	623.8	11.229	23.47	13.85	1.68
	90.45	33.05	67.70	0.00	0.0615	10.68	470.0	401.69	0.0739	627.6	11.297	23.60	13.94	1.68
	91.46	33.06	67.70	0.00	0.0614	10.68	469.8	401.55	0.0744	631.6	11.369	23.75	14.04	1.68
	92.45	33.09	67.67	0.00	0.0613	10.66	469.0	400.99	0.0740	631.0	11.358	23.74	14.02	1.68
	93.43	33.09	67.67	0.00	0.0614	10.66	469.0	401.02	0.0740	625.6	11.261	23.54	13.89	1.68
	94.44	33.06	67.72	0.00	0.0614	10.67	469.6	401.20	0.0739	627.3	11.291	23.58	13.93	1.68
	95.44	33.09	67.70	0.00	0.0613	10.65	468.7	400.59	0.0745	628.3	11.310	23.63	13.96	1.68
	96.46	33.05	67.65	0.00	0.0614	10.66	469.1	401.18	0.0748	638.2	11.487	24.01	14.19	1.68
	97.45	33.05	67.65	-0.00	0.0613	10.66	469.1	401.16	0.0743	635.8	11.444	23.92	14.14	1.68
	98.47	33.08	67.68	-0.00	0.0614	10.66	469.2	401.19	0.0745	634.8	11.427	23.88	14.11	1.68
	99.45	33.07	67.67	-0.00	0.0614	10.66	469.0	401.04	0.0753	638.6	11.496	24.03	14.21	1.68
	100.45	33.05	67.70	-0.00	0.0614	10.67	469.6	401.29	0.0772	665.3	11.976	25.02	14.84	1.68
	101.45	33.02	67.70	-0.00	0.0615	10.67	469.4	401.15	0.0775	668.7	12.037	25.14	14.92	1.68
	102.45	33.06	67.70	-0.00	0.0614	10.67	469.6	401.36	0.0766	664.5	11.961	24.99	14.82	1.68
	103.43	33.05	67.70	0.00	0.0614	10.66	469.2	400.97	0.0775	668.8	12.039	25.15	14.92	1.68
	104.43	33.11	67.70	0.00	0.0614	10.67	469.6	401.39	0.0760	657.2	11.829	24.72	14.65	1.68
	105.46	33.05	67.68	0.00	0.0614	10.66	469.2	401.13	0.0762	653.9	11.770	24.60	14.57	1.68
	106.52	33.16	67.72	0.00	0.0614	10.67	469.6	401.32	0.0768	659.6	11.872	24.80	14.71	1.68
	107.44	33.11	67.65	0.00	0.0614	10.67	469.3	401.45	0.0774	670.3	12.065	25.23	14.96	1.68
	108.45	33.08	67.68	0.00	0.0615	10.69	470.2	402.01	0.0774	672.8	12.110	25.31	15.01	1.68
	109.45	33.08	67.68	0.00	0.0614	10.68	470.0	401.88	0.0773	672.5	12.106	25.30	15.01	1.68
	110.51	33.10	67.70	0.00	0.0614	10.68	469.8	401.56	0.0770	670.5	12.068	25.22	14.96	1.68
	111.46	33.13	67.70	0.00	0.0614	10.68	469.8	401.57	0.0764	659.1	11.864	24.79	14.70	1.68
	112.46	33.10	67.68	-0.00	0.0614	10.67	469.4	401.35	0.0758	651.5	11.728	24.51	14.52	1.68
	113.51	33.12	67.68	0.00	0.0614	10.67	469.5	401.52	0.0756	649.6	11.693	24.44	14.47	1.68
	114.43	33.14	67.70	0.00	0.0614	10.67	469.3	401.21	0.0759	652.3	11.742	24.54	14.54	1.68
	115.46	33.10	67.70	-0.00	0.0615	10.69	470.4	402.10	0.0767	662.0	11.916	24.90	14.76	1.68
	116.44	33.15	67.70	0.00	0.0614	10.67	469.5	401.35	0.0761	655.4	11.797	24.65	14.61	1.68
	117.44	33.16	67.70	0.00	0.0615	10.70	470.7	402.46	0.0762	657.2	11.829	24.72	14.65	1.68
	118.44	33.13	67.70	0.00	0.0615	10.70	470.7	402.40	0.0772	669.1	12.044	25.17	14.93	1.68
	119.45	33.15	67.70	-0.00	0.0614	10.68	469.9	401.75	0.0772	670.8	12.074	25.23	14.97	1.68
	120.45	33.12	67.72	-0.00	0.0614	10.67	469.6	401.28	0.0773	669.4	12.049	25.17	14.94	1.68
	121.43	33.13	67.70	0.00	0.0614	10.68	469.9	401.67	0.0788	690.5	12.429	25.97	15.42	1.68
	122.45	33.13	67.70	0.00	0.0614	10.67	469.4	401.29	0.0788	696.2	12.531	26.18	15.55	1.68
