Jul 25 2015 at 15:56:04
Frequency: 1.00Hz.
CO2
Zero:  Value:0.95  Date:18 Mar 2005	 at 07:22:33	
Span:  Value:1.00  Date:18 Mar 2005	 at 07:25:09	
H2O
Zero:  Value:0.71  Date:18 Mar 2005	 at 07:52:31	
Span:  Value:0.99  Date:18 Mar 2005	 at 11:44:01	
	Relative Time	Temperature	Pressure	Aux Input	CO2 Absorptance	CO2 mmol/m3	CO2 mg/m3	CO2 umol/mol	H2O Absorptance	H2O mmol/m3	H2O g/m3	H2O mmol/mol	H2O(°C)	Cooler Voltage
	0.41	34.06	67.70	0.00	0.0615	10.69	470.5	403.46	0.0594	457.1	8.228	17.25	9.19	1.65
	1.40	34.07	67.68	0.00	0.0615	10.69	470.4	403.49	0.0588	453.9	8.171	17.13	9.09	1.65
	2.40	34.06	67.70	-0.00	0.0615	10.69	470.4	403.32	0.0583	449.1	8.085	16.95	8.93	1.65
	3.42	34.09	67.70	0.00	0.0614	10.68	470.0	403.04	0.0581	443.7	7.986	16.74	8.75	1.65
	4.40	34.09	67.68	0.00	0.0613	10.68	469.8	403.00	0.0616	458.7	8.256	17.31	9.25	1.65
	5.38	34.07	67.70	0.00	0.0612	10.64	468.3	401.57	0.0611	474.9	8.549	17.92	9.76	1.65
	6.40	34.06	67.68	0.00	0.0613	10.64	468.3	401.67	0.0605	467.4	8.413	17.64	9.52	1.65
	7.41	34.09	67.70	0.00	0.0612	10.64	468.1	401.36	0.0606	467.9	8.423	17.65	9.54	1.65
	8.39	34.16	67.70	0.00	0.0613	10.65	468.6	401.88	0.0606	471.1	8.479	17.78	9.65	1.65
	9.42	34.09	67.70	0.00	0.0613	10.63	467.9	401.22	0.0611	468.5	8.433	17.68	9.56	1.65
	10.48	34.12	67.70	-0.00	0.0613	10.65	468.6	401.82	0.0608	471.6	8.488	17.79	9.66	1.65
	11.40	34.14	67.68	-0.00	0.0613	10.65	468.8	402.22	0.0603	470.7	8.473	17.77	9.63	1.65
	12.39	34.13	67.70	0.00	0.0614	10.67	469.3	402.50	0.0593	458.1	8.246	17.29	9.23	1.65
	13.40	34.16	67.70	0.00	0.0612	10.63	467.9	401.31	0.0596	452.4	8.143	17.07	9.04	1.65
	14.46	34.13	67.72	0.00	0.0614	10.68	469.7	402.70	0.0584	445.4	8.017	16.80	8.81	1.65
	15.38	34.15	67.70	0.00	0.0614	10.68	469.9	403.03	0.0573	431.6	7.769	16.29	8.35	1.65
	16.41	34.17	67.72	-0.00	0.0612	10.64	468.0	401.30	0.0586	446.4	8.036	16.84	8.85	1.65
	17.39	34.15	67.72	0.00	0.0612	10.63	467.7	401.04	0.0589	450.2	8.104	16.99	8.97	1.65
	18.39	34.15	67.70	0.00	0.0610	10.60	466.6	400.19	0.0593	456.0	8.208	17.21	9.16	1.65
	19.41	34.20	67.72	-0.00	0.0610	10.59	466.0	399.61	0.0613	470.2	8.464	17.74	9.62	1.65
	20.41	34.15	67.72	0.00	0.0607	10.55	464.0	397.86	0.0632	497.4	8.953	18.76	10.46	1.65
	21.40	34.10	67.70	0.00	0.0607	10.50	462.1	396.23	0.0643	510.9	9.197	19.28	10.86	1.65
	22.42	34.12	67.73	0.00	0.0606	10.48	461.0	395.18	0.0635	507.4	9.133	19.14	10.75	1.65
	23.40	34.12	67.70	0.00	0.0605	10.47	460.7	395.11	0.0627	496.1	8.930	18.72	10.42	1.65
	24.41	34.11	67.70	0.00	0.0606	10.51	462.3	396.43	0.0627	493.2	8.878	18.61	10.33	1.65
	25.40	34.10	67.73	0.00	0.0606	10.51	462.2	396.20	0.0623	492.8	8.871	18.59	10.32	1.65
	26.39	34.09	67.70	0.00	0.0609	10.57	464.9	398.62	0.0621	485.4	8.737	18.31	10.09	1.65
	27.39	34.11	67.70	0.00	0.0609	10.57	465.3	398.96	0.0616	482.6	8.686	18.21	10.00	1.65
	28.41	34.12	67.70	-0.00	0.0608	10.51	462.6	396.69	0.0622	482.3	8.682	18.20	10.00	1.65
	29.41	34.11	67.72	0.00	0.0608	10.54	463.6	397.42	0.0626	492.6	8.867	18.58	10.31	1.65
	30.40	34.18	67.70	0.00	0.0610	10.58	465.7	399.47	0.0630	494.9	8.908	18.68	10.38	1.65
	31.40	34.15	67.70	0.00	0.0610	10.55	464.2	398.17	0.0638	507.7	9.139	19.16	10.77	1.65
	32.40	34.14	67.70	0.00	0.0608	10.55	464.1	398.04	0.0638	505.5	9.098	19.07	10.70	1.65
	33.41	34.09	67.70	-0.00	0.0608	10.55	464.1	397.94	0.0630	506.3	9.113	19.10	10.72	1.65
	34.40	34.11	67.70	0.00	0.0610	10.55	464.4	398.26	0.0607	477.2	8.590	18.01	9.84	1.65
	35.38	34.08	67.70	0.00	0.0607	10.51	462.6	396.70	0.0658	529.9	9.538	19.99	11.41	1.65
	36.40	34.12	67.70	-0.00	0.0607	10.51	462.3	396.48	0.0649	516.8	9.303	19.50	11.03	1.65
	37.41	34.11	67.70	-0.00	0.0606	10.51	462.6	396.75	0.0642	501.3	9.023	18.91	10.57	1.65
	38.39	34.09	67.73	-0.00	0.0604	10.46	460.1	394.42	0.0646	522.4	9.403	19.70	11.19	1.65
	39.39	34.06	67.70	0.00	0.0606	10.47	460.9	395.19	0.0659	532.3	9.582	20.08	11.47	1.65
	40.42	34.06	67.70	0.00	0.0603	10.46	460.4	394.77	0.0665	530.3	9.545	20.01	11.42	1.65
	41.40	34.07	67.70	0.00	0.0603	10.42	458.5	393.13	0.0666	536.2	9.651	20.23	11.58	1.65
	42.38	34.09	67.75	0.00	0.0604	10.44	459.4	393.67	0.0669	540.3	9.725	20.37	11.70	1.65
	43.41	34.06	67.68	-0.00	0.0603	10.43	458.7	393.47	0.0664	544.0	9.792	20.53	11.80	1.65
	44.40	34.06	67.70	0.00	0.0604	10.45	459.9	394.32	0.0662	536.0	9.648	20.22	11.58	1.65
	45.47	34.02	67.70	0.00	0.0604	10.47	460.6	394.90	0.0652	518.2	9.328	19.55	11.07	1.65
	46.41	34.02	67.70	0.00	0.0605	10.47	460.7	394.94	0.0668	546.3	9.833	20.61	11.86	1.65
	47.41	34.05	67.72	-0.00	0.0602	10.41	457.9	392.47	0.0679	554.2	9.976	20.90	12.08	1.65
	48.39	34.06	67.70	-0.00	0.0602	10.39	457.2	392.01	0.0676	548.8	9.878	20.70	11.93	1.65
	49.47	34.04	67.71	0.00	0.0601	10.40	457.6	392.34	0.0680	554.8	9.987	20.93	12.10	1.65
	50.39	34.03	67.70	0.00	0.0601	10.39	457.1	391.89	0.0684	561.0	10.099	21.17	12.27	1.65
	51.39	33.98	67.70	-0.00	0.0602	10.44	459.3	393.70	0.0693	555.3	9.996	20.94	12.11	1.65
	52.40	33.97	67.72	-0.00	0.0600	10.36	456.0	390.73	0.0695	569.8	10.256	21.48	12.50	1.65
	53.40	33.97	67.70	-0.00	0.0599	10.37	456.4	391.22	0.0702	573.8	10.329	21.64	12.61	1.65
	54.38	33.96	67.68	0.00	0.0599	10.37	456.2	391.21	0.0700	576.2	10.372	21.74	12.67	1.65
	55.41	34.00	67.70	0.00	0.0594	10.27	451.8	387.35	0.0730	609.2	10.965	22.98	13.53	1.65
	56.39	34.03	67.70	0.00	0.0597	10.29	452.7	388.15	0.0702	589.8	10.616	22.25	13.03	1.65
	57.39	34.00	67.68	0.00	0.0597	10.33	454.5	389.78	0.0706	582.5	10.484	21.98	12.84	1.65
	58.41	34.07	67.70	0.00	0.0598	10.34	454.9	390.08	0.0705	584.8	10.527	22.07	12.91	1.65
	59.47	34.09	67.70	0.00	0.0597	10.28	452.5	387.98	0.0710	592.1	10.659	22.34	13.10	1.65
	60.39	34.04	67.70	0.00	0.0595	10.28	452.2	387.70	0.0724	596.1	10.730	22.49	13.20	1.65
	61.42	34.06	67.72	0.00	0.0594	10.21	449.3	385.11	0.0735	626.7	11.281	23.64	13.97	1.65
	62.40	34.04	67.70	0.00	0.0593	10.19	448.5	384.50	0.0744	634.0	11.412	23.92	14.14	1.65
	63.40	34.00	67.68	-0.00	0.0593	10.20	448.8	384.89	0.0735	623.1	11.216	23.51	13.87	1.65
	64.40	33.99	67.70	0.00	0.0592	10.12	445.5	381.86	0.0743	635.3	11.436	23.96	14.17	1.65
	65.39	33.93	67.68	0.00	0.0593	10.17	447.6	383.76	0.0738	643.0	11.574	24.26	14.36	1.65
	66.39	34.00	67.70	-0.00	0.0594	10.22	449.7	385.47	0.0735	624.4	11.239	23.55	13.91	1.65
	67.41	34.03	67.70	-0.00	0.0596	10.24	450.6	386.37	0.0732	619.5	11.152	23.37	13.79	1.65
	68.39	34.00	67.68	0.00	0.0595	10.25	450.8	386.62	0.0742	628.2	11.308	23.70	14.00	1.65
	69.41	34.00	67.72	0.00	0.0595	10.21	449.1	384.91	0.0742	635.7	11.443	23.97	14.18	1.65
	70.40	34.02	67.72	-0.00	0.0592	10.19	448.3	384.23	0.0752	644.1	11.595	24.29	14.39	1.65
	71.42	34.00	67.70	-0.00	0.0594	10.24	450.4	386.10	0.0753	643.3	11.579	24.26	14.36	1.65
	72.40	34.01	67.72	0.00	0.0591	10.18	447.8	383.78	0.0756	650.1	11.703	24.52	14.53	1.65
	73.40	34.05	67.72	-0.00	0.0591	10.17	447.4	383.46	0.0764	655.6	11.801	24.73	14.66	1.65
	74.38	34.00	67.65	0.00	0.0592	10.19	448.4	384.66	0.0754	647.7	11.659	24.45	14.47	1.65
	75.41	34.04	67.70	0.00	0.0590	10.16	447.2	383.41	0.0753	646.3	11.633	24.38	14.44	1.65
	76.39	34.02	67.70	0.00	0.0591	10.14	446.1	382.47	0.0755	651.3	11.724	24.57	14.56	1.65
	77.38	34.00	67.70	0.00	0.0591	10.15	446.6	382.88	0.0755	647.2	11.649	24.41	14.46	1.65
	78.42	34.04	67.70	-0.00	0.0592	10.16	446.9	383.15	0.0757	653.8	11.768	24.66	14.62	1.65
	79.40	33.99	67.70	0.00	0.0590	10.13	445.6	381.99	0.0766	658.3	11.850	24.83	14.72	1.65
	80.39	34.02	67.70	0.00	0.0590	10.15	446.4	382.71	0.0770	661.7	11.911	24.96	14.80	1.65
	81.40	34.04	67.70	0.00	0.0589	10.12	445.3	381.76	0.0770	668.6	12.034	25.22	14.96	1.65
	82.40	34.01	67.70	0.00	0.0590	10.13	445.5	381.98	0.0771	667.8	12.021	25.19	14.95	1.65
	83.40	34.00	67.70	-0.00	0.0589	10.12	445.1	381.57	0.0768	664.0	11.952	25.04	14.86	1.65
	84.40	34.00	67.70	0.00	0.0590	10.13	445.8	382.13	0.0770	666.4	11.995	25.13	14.91	1.65
	85.39	33.98	67.70	0.00	0.0590	10.15	446.7	382.95	0.0770	671.7	12.090	25.33	15.03	1.65
	86.39	33.99	67.68	-0.00	0.0587	10.07	443.1	379.98	0.0793	694.2	12.495	26.19	15.55	1.65
	87.41	33.96	67.72	0.00	0.0587	10.09	443.8	380.27	0.0777	672.6	12.108	25.36	15.06	1.65
	88.41	33.91	67.68	-0.00	0.0589	10.09	444.1	380.76	0.0776	679.6	12.233	25.64	15.21	1.65
	89.40	33.96	67.70	-0.00	0.0587	10.09	444.0	380.58	0.0784	686.1	12.350	25.88	15.36	1.65
	90.40	33.96	67.72	-0.00	0.0587	10.04	442.0	378.69	0.0782	687.7	12.378	25.93	15.40	1.65
	91.39	34.01	67.70	0.00	0.0586	10.07	443.3	379.97	0.0784	684.0	12.312	25.80	15.32	1.65
	92.38	34.03	67.72	0.00	0.0586	10.07	443.1	379.75	0.0786	689.2	12.405	25.99	15.44	1.65
	93.40	34.00	67.70	-0.00	0.0586	10.06	442.6	379.40	0.0792	695.6	12.521	26.24	15.58	1.65
	94.38	34.01	67.70	0.00	0.0586	10.05	442.3	379.18	0.0792	699.9	12.598	26.40	15.68	1.65
	95.39	33.98	67.70	-0.00	0.0585	10.04	441.9	378.79	0.0791	698.9	12.580	26.36	15.65	1.65
	96.41	33.95	67.72	0.00	0.0586	10.04	441.7	378.42	0.0791	695.6	12.521	26.22	15.58	1.65
	97.41	33.96	67.70	0.00	0.0585	10.04	441.7	378.60	0.0799	705.7	12.703	26.62	15.80	1.65
	98.39	33.97	67.70	0.00	0.0584	10.02	441.0	378.03	0.0798	703.8	12.668	26.54	15.76	1.65
	99.42	33.94	67.70	-0.00	0.0583	9.98	439.3	376.50	0.0815	726.6	13.079	27.40	16.26	1.65
	100.40	33.95	67.70	-0.00	0.0584	10.00	439.8	376.97	0.0802	714.4	12.859	26.94	15.99	1.65
	101.39	33.87	67.70	0.00	0.0585	10.03	441.5	378.32	0.0804	708.2	12.747	26.70	15.85	1.65
	102.40	33.83	67.72	-0.00	0.0580	9.94	437.6	374.77	0.0830	738.7	13.297	27.84	16.51	1.65
	103.40	33.83	67.70	-0.00	0.0583	9.98	439.2	376.30	0.0813	721.5	12.987	27.20	16.14	1.65
	104.41	33.84	67.72	-0.00	0.0584	9.98	439.3	376.29	0.0807	713.1	12.836	26.88	15.96	1.65
	105.39	33.77	67.72	0.00	0.0582	9.96	438.1	375.12	0.0816	731.9	13.174	27.58	16.36	1.65
	106.41	33.77	67.70	-0.00	0.0580	9.92	436.5	373.93	0.0826	740.5	13.328	27.91	16.55	1.65
	107.41	33.76	67.67	0.00	0.0579	9.96	438.1	375.41	0.0828	732.4	13.183	27.62	16.38	1.65
	108.39	33.77	67.70	0.00	0.0579	9.91	436.2	373.61	0.0833	748.9	13.480	28.23	16.72	1.65
	109.39	33.82	67.70	0.00	0.0580	9.91	436.1	373.64	0.0825	747.6	13.456	28.18	16.70	1.65
	110.40	33.79	67.72	0.00	0.0580	9.94	437.3	374.54	0.0817	731.9	13.175	27.58	16.37	1.65
	111.38	33.84	67.72	0.00	0.0582	9.96	438.0	375.18	0.0822	737.6	13.277	27.80	16.49	1.65
	112.40	33.81	67.72	-0.00	0.0581	9.94	437.3	374.50	0.0826	742.4	13.363	27.98	16.59	1.65
	113.47	33.84	67.70	-0.00	0.0580	9.94	437.2	374.65	0.0831	749.1	13.484	28.24	16.73	1.65
	114.46	33.81	67.70	0.00	0.0581	9.93	436.8	374.18	0.0822	741.4	13.346	27.95	16.57	1.65
	115.39	33.79	67.68	0.00	0.0582	9.94	437.6	374.95	0.0818	733.4	13.202	27.65	16.40	1.65
	116.41	33.75	67.70	-0.00	0.0581	9.94	437.2	374.46	0.0830	747.6	13.457	28.18	16.70	1.65
	117.39	33.73	67.70	0.00	0.0581	9.91	436.1	373.56	0.0823	746.6	13.439	28.14	16.67	1.65
	118.41	33.69	67.70	-0.00	0.0579	9.90	435.7	373.17	0.0836	753.0	13.553	28.37	16.81	1.65
	119.42	33.67	67.68	-0.00	0.0579	9.90	435.4	373.02	0.0830	750.8	13.515	28.30	16.76	1.65
