Jul 25 2015 at 10:04:28
Frequency: 1.00Hz.
CO2
Zero:  Value:0.95  Date:18 Mar 2005	 at 07:22:33	
Span:  Value:1.00  Date:18 Mar 2005	 at 07:25:09	
H2O
Zero:  Value:0.71  Date:18 Mar 2005	 at 07:52:31	
Span:  Value:0.99  Date:18 Mar 2005	 at 11:44:01	
	Relative Time	Temperature	Pressure	Aux Input	CO2 Absorptance	CO2 mmol/m3	CO2 mg/m3	CO2 umol/mol	H2O Absorptance	H2O mmol/m3	H2O g/m3	H2O mmol/mol	H2O(°C)	Cooler Voltage
	0.34	19.90	67.81	0.00	0.0650	11.52	507.1	414.11	0.0517	369.1	6.644	13.26	5.38	1.44
	1.34	19.91	67.83	-0.00	0.0647	11.43	502.8	410.46	0.0511	370.9	6.677	13.32	5.45	1.44
	2.34	19.86	67.81	0.00	0.0645	11.38	500.6	408.71	0.0515	372.1	6.698	13.37	5.49	1.44
	3.34	19.86	67.81	-0.00	0.0641	11.31	497.7	406.38	0.0525	381.5	6.867	13.71	5.85	1.44
	4.34	19.85	67.81	0.00	0.0643	11.27	496.0	404.96	0.0523	380.6	6.850	13.67	5.82	1.44
	5.35	19.85	67.81	-0.00	0.0643	11.32	497.9	406.52	0.0523	382.2	6.880	13.73	5.88	1.44
	6.33	19.83	67.81	0.00	0.0639	11.26	495.4	404.44	0.0525	381.3	6.863	13.70	5.84	1.44
	7.35	19.83	67.81	0.00	0.0640	11.26	495.6	404.61	0.0526	385.3	6.935	13.84	5.99	1.44
	8.33	19.85	67.83	0.00	0.0640	11.27	495.8	404.64	0.0526	385.3	6.936	13.84	6.00	1.44
	9.35	19.86	67.81	0.00	0.0640	11.25	495.1	404.21	0.0525	384.2	6.915	13.80	5.95	1.44
	10.33	19.86	67.83	0.00	0.0639	11.24	494.4	403.57	0.0521	378.0	6.804	13.58	5.72	1.44
	11.34	19.86	67.81	-0.00	0.0639	11.23	494.3	403.61	0.0523	380.3	6.846	13.66	5.81	1.44
	12.34	19.88	67.81	-0.00	0.0639	11.25	494.8	404.05	0.0523	380.1	6.842	13.66	5.80	1.44
	13.35	19.86	67.81	-0.00	0.0638	11.22	493.9	403.25	0.0522	381.0	6.858	13.69	5.83	1.44
	14.35	19.86	67.81	0.00	0.0639	11.23	494.0	403.35	0.0523	381.5	6.867	13.71	5.85	1.44
	15.35	19.86	67.81	-0.00	0.0637	11.19	492.6	402.19	0.0525	383.9	6.910	13.79	5.94	1.44
	16.35	19.86	67.81	0.00	0.0637	11.19	492.2	401.89	0.0527	386.4	6.956	13.88	6.04	1.44
	17.35	19.86	67.83	-0.00	0.0636	11.19	492.2	401.72	0.0526	384.5	6.921	13.81	5.97	1.44
	18.35	19.88	67.81	0.00	0.0636	11.17	491.5	401.34	0.0527	385.3	6.936	13.84	6.00	1.44
	19.34	19.86	67.83	0.00	0.0637	11.18	491.9	401.53	0.0527	384.7	6.925	13.82	5.98	1.44
	20.36	19.86	67.81	-0.00	0.0636	11.17	491.4	401.23	0.0526	384.1	6.914	13.80	5.95	1.44
	21.40	19.86	67.81	0.00	0.0636	11.17	491.4	401.26	0.0527	385.4	6.937	13.85	6.00	1.44
	22.32	19.88	67.81	0.00	0.0635	11.16	490.9	400.83	0.0526	384.5	6.921	13.82	5.97	1.44
	23.42	19.85	67.81	-0.00	0.0636	11.17	491.7	401.47	0.0529	387.3	6.971	13.91	6.07	1.44
	24.32	19.90	67.81	0.00	0.0636	11.18	491.9	401.67	0.0528	386.4	6.955	13.88	6.04	1.44
	25.35	19.88	67.83	-0.00	0.0636	11.16	491.2	400.99	0.0528	385.8	6.944	13.86	6.02	1.44
	26.32	19.88	67.81	0.00	0.0636	11.17	491.4	401.31	0.0527	385.2	6.933	13.84	5.99	1.44
	27.35	19.90	67.81	-0.00	0.0635	11.15	490.8	400.79	0.0526	384.2	6.915	13.80	5.96	1.44
	28.35	19.90	67.83	0.00	0.0635	11.14	490.0	399.97	0.0522	380.5	6.849	13.67	5.82	1.44
	29.36	19.91	67.83	-0.00	0.0635	11.16	491.0	400.82	0.0524	382.5	6.886	13.74	5.90	1.44
	30.34	19.90	67.81	-0.00	0.0635	11.15	490.8	400.79	0.0524	382.4	6.884	13.74	5.89	1.44
	31.34	19.90	67.81	0.00	0.0635	11.16	490.9	400.86	0.0524	382.4	6.883	13.74	5.89	1.44
	32.42	19.91	67.81	-0.00	0.0635	11.16	490.9	400.92	0.0525	382.7	6.889	13.75	5.90	1.44
	33.35	19.90	67.81	-0.00	0.0635	11.15	490.8	400.78	0.0525	383.3	6.899	13.77	5.92	1.44
	34.34	19.93	67.81	0.00	0.0635	11.15	490.4	400.55	0.0524	382.6	6.888	13.75	5.90	1.44
	35.35	19.93	67.81	-0.00	0.0635	11.16	490.8	400.87	0.0526	383.8	6.909	13.79	5.95	1.44
	36.33	19.91	67.81	0.00	0.0635	11.14	490.3	400.38	0.0525	383.0	6.895	13.76	5.91	1.44
	37.35	19.91	67.83	0.00	0.0634	11.13	489.7	399.72	0.0524	382.0	6.876	13.72	5.87	1.44
	38.33	19.93	67.83	-0.00	0.0634	11.12	489.1	399.34	0.0525	382.0	6.876	13.72	5.88	1.44
	39.33	19.90	67.81	-0.00	0.0633	11.11	488.7	399.03	0.0525	383.4	6.901	13.77	5.93	1.44
	40.34	19.91	67.81	-0.00	0.0634	11.11	488.7	399.09	0.0526	384.8	6.926	13.83	5.98	1.44
	41.33	19.88	67.81	-0.00	0.0634	11.11	489.0	399.31	0.0526	384.0	6.912	13.80	5.95	1.44
	42.35	19.90	67.81	-0.00	0.0633	11.10	488.5	398.90	0.0527	384.3	6.918	13.81	5.96	1.44
	43.34	19.91	67.81	0.00	0.0634	11.12	489.5	399.74	0.0526	384.5	6.921	13.82	5.97	1.44
	44.41	19.91	67.81	0.00	0.0634	11.11	489.1	399.40	0.0525	383.5	6.903	13.78	5.93	1.44
	45.33	19.90	67.78	0.00	0.0633	11.11	488.6	399.18	0.0524	382.6	6.886	13.75	5.90	1.44
	46.33	19.91	67.83	0.00	0.0633	11.11	488.8	399.04	0.0524	382.2	6.879	13.73	5.88	1.44
	47.41	19.88	67.81	-0.00	0.0633	11.10	488.3	398.71	0.0525	382.9	6.893	13.76	5.91	1.44
	48.33	19.90	67.81	0.00	0.0632	11.09	487.9	398.41	0.0524	382.3	6.882	13.74	5.89	1.44
	49.34	19.91	67.81	0.00	0.0633	11.08	487.6	398.16	0.0523	381.0	6.858	13.69	5.84	1.44
	50.34	19.88	67.79	0.00	0.0632	11.08	487.7	398.38	0.0523	381.1	6.860	13.70	5.84	1.44
	51.32	19.91	67.81	0.00	0.0632	11.08	487.5	398.12	0.0524	381.7	6.870	13.71	5.86	1.44
	52.35	19.90	67.81	-0.00	0.0633	11.09	488.0	398.52	0.0525	383.2	6.897	13.77	5.92	1.44
	53.34	19.90	67.83	0.00	0.0633	11.09	488.1	398.45	0.0526	384.2	6.915	13.80	5.96	1.44
	54.35	19.90	67.80	-0.00	0.0632	11.08	487.6	398.25	0.0526	384.3	6.918	13.81	5.96	1.44
	55.41	19.93	67.81	-0.00	0.0632	11.07	487.2	397.95	0.0527	385.0	6.930	13.84	5.99	1.44
	56.35	19.91	67.81	-0.00	0.0632	11.08	487.4	398.06	0.0526	384.4	6.919	13.81	5.96	1.44
	57.35	19.91	67.81	0.00	0.0632	11.08	487.4	398.04	0.0526	384.4	6.919	13.81	5.97	1.44
	58.34	19.90	67.83	0.00	0.0632	11.08	487.3	397.79	0.0527	385.4	6.937	13.84	6.00	1.44
	59.34	19.91	67.81	0.00	0.0632	11.07	486.9	397.65	0.0531	388.5	6.993	13.96	6.12	1.44
	60.34	19.91	67.80	-0.00	0.0632	11.08	487.7	398.34	0.0534	391.7	7.051	14.08	6.24	1.44
	61.32	19.91	67.81	0.00	0.0632	11.08	487.5	398.13	0.0531	389.3	7.007	13.99	6.15	1.44
	62.34	19.91	67.83	0.00	0.0631	11.06	486.8	397.43	0.0530	388.6	6.996	13.96	6.12	1.44
	63.34	19.93	67.81	0.00	0.0631	11.04	485.6	396.62	0.0532	389.9	7.018	14.01	6.17	1.44
	64.33	19.91	67.81	0.00	0.0630	11.04	485.5	396.52	0.0533	390.9	7.037	14.05	6.21	1.44
	65.35	19.91	67.81	-0.00	0.0630	11.03	485.4	396.43	0.0534	392.0	7.056	14.09	6.25	1.44
	66.33	19.90	67.83	0.00	0.0630	11.03	485.5	396.34	0.0535	392.6	7.066	14.10	6.27	1.44
	67.35	19.93	67.81	-0.00	0.0630	11.03	485.5	396.50	0.0534	392.7	7.068	14.11	6.27	1.44
	68.33	19.90	67.81	0.00	0.0630	11.03	485.4	396.42	0.0534	392.5	7.066	14.10	6.27	1.44
	69.33	19.90	67.81	0.00	0.0630	11.03	485.3	396.29	0.0535	392.9	7.072	14.12	6.28	1.44
	70.34	19.90	67.81	0.00	0.0630	11.03	485.1	396.16	0.0535	393.0	7.074	14.12	6.29	1.44
	71.34	19.91	67.83	0.00	0.0630	11.03	485.2	396.09	0.0534	392.7	7.068	14.11	6.27	1.44
	72.35	19.88	67.83	-0.00	0.0629	11.02	484.9	395.80	0.0535	392.5	7.065	14.10	6.27	1.44
	73.34	19.91	67.81	0.00	0.0630	11.02	485.1	396.14	0.0534	392.2	7.059	14.09	6.26	1.44
	74.33	19.90	67.81	0.00	0.0630	11.03	485.2	396.19	0.0534	392.4	7.063	14.10	6.26	1.44
	75.33	19.90	67.81	0.00	0.0629	11.03	485.1	396.16	0.0534	392.3	7.062	14.10	6.26	1.44
	76.33	19.90	67.83	0.00	0.0630	11.02	484.7	395.68	0.0535	393.3	7.080	14.13	6.30	1.44
	77.36	19.90	67.83	-0.00	0.0629	11.01	484.6	395.59	0.0536	394.5	7.101	14.17	6.34	1.44
	78.42	19.91	67.81	-0.00	0.0630	11.02	484.9	396.02	0.0537	395.3	7.115	14.20	6.37	1.44
	79.34	19.90	67.83	-0.00	0.0629	11.02	484.7	395.63	0.0536	395.2	7.113	14.19	6.37	1.44
	80.36	19.90	67.83	-0.00	0.0629	11.01	484.5	395.47	0.0537	395.8	7.124	14.22	6.39	1.44
	81.34	19.90	67.83	-0.00	0.0629	11.00	484.0	395.08	0.0539	396.7	7.141	14.25	6.42	1.44
	82.32	19.91	67.83	0.00	0.0628	10.99	483.4	394.67	0.0540	399.1	7.184	14.34	6.51	1.44
	83.35	19.90	67.81	0.00	0.0628	10.98	483.3	394.66	0.0542	400.0	7.200	14.37	6.54	1.44
	84.33	19.90	67.81	0.00	0.0628	10.99	483.4	394.74	0.0543	401.3	7.223	14.42	6.59	1.44
	85.35	19.91	67.81	-0.00	0.0628	10.99	483.5	394.82	0.0543	402.6	7.246	14.46	6.63	1.45
	86.35	19.93	67.81	-0.00	0.0628	10.98	483.3	394.72	0.0544	402.9	7.252	14.48	6.65	1.45
	87.33	19.91	67.83	0.00	0.0628	10.99	483.6	394.78	0.0546	404.0	7.273	14.51	6.69	1.44
	88.34	19.88	67.81	-0.00	0.0628	10.99	483.4	394.75	0.0545	403.8	7.269	14.51	6.68	1.44
	89.36	19.93	67.81	-0.00	0.0627	10.98	483.0	394.47	0.0546	403.9	7.270	14.51	6.68	1.44
	90.34	19.91	67.81	0.00	0.0627	10.96	482.4	393.99	0.0547	405.8	7.305	14.58	6.75	1.45
	91.34	19.91	67.81	0.00	0.0626	10.96	482.0	393.67	0.0549	407.9	7.342	14.66	6.83	1.44
	92.34	19.91	67.78	-0.00	0.0626	10.95	482.0	393.75	0.0551	409.3	7.368	14.71	6.88	1.44
	93.34	19.88	67.81	0.00	0.0626	10.94	481.3	393.01	0.0551	410.2	7.383	14.74	6.91	1.44
	94.43	19.91	67.83	-0.00	0.0626	10.94	481.3	392.89	0.0551	410.0	7.379	14.73	6.90	1.44
	95.33	19.91	67.81	0.00	0.0626	10.94	481.4	393.17	0.0550	408.3	7.349	14.67	6.84	1.44
	96.33	19.91	67.85	0.00	0.0627	10.95	481.7	393.13	0.0548	406.6	7.319	14.60	6.78	1.45
	97.33	19.91	67.81	0.00	0.0626	10.95	481.9	393.60	0.0547	405.8	7.305	14.58	6.75	1.45
	98.33	19.90	67.78	0.00	0.0626	10.95	481.6	393.42	0.0547	405.6	7.300	14.58	6.74	1.44
	99.34	19.91	67.83	0.00	0.0626	10.95	481.6	393.16	0.0546	405.4	7.297	14.56	6.74	1.45
	100.32	19.90	67.81	0.00	0.0626	10.94	481.4	393.09	0.0548	406.4	7.314	14.60	6.77	1.45
	101.34	19.91	67.81	0.00	0.0625	10.93	480.8	392.64	0.0550	408.5	7.353	14.68	6.85	1.44
	102.34	19.91	67.81	-0.00	0.0625	10.92	480.3	392.29	0.0552	411.3	7.403	14.78	6.95	1.45
	103.35	19.91	67.81	-0.00	0.0625	10.91	480.1	392.12	0.0554	412.4	7.423	14.82	6.99	1.45
	104.32	19.90	67.83	0.00	0.0624	10.91	479.9	391.73	0.0555	414.4	7.460	14.89	7.06	1.45
	105.36	19.90	67.83	-0.00	0.0624	10.91	479.9	391.73	0.0555	414.5	7.461	14.89	7.06	1.44
	106.35	19.90	67.83	-0.00	0.0624	10.90	479.5	391.45	0.0555	413.6	7.446	14.86	7.03	1.45
	107.33	19.90	67.81	-0.00	0.0624	10.89	479.4	391.44	0.0554	412.9	7.433	14.84	7.00	1.45
	108.34	19.91	67.83	0.00	0.0624	10.88	478.9	390.98	0.0555	413.6	7.446	14.86	7.03	1.45
	109.33	19.90	67.81	0.00	0.0622	10.86	478.0	390.37	0.0557	415.5	7.479	14.93	7.10	1.45
	110.34	19.91	67.83	0.00	0.0622	10.86	477.6	389.93	0.0557	416.7	7.501	14.97	7.14	1.45
	111.34	19.91	67.81	-0.00	0.0622	10.85	477.3	389.81	0.0559	417.9	7.523	15.02	7.18	1.45
	112.35	19.91	67.78	-0.00	0.0622	10.85	477.4	390.05	0.0560	419.4	7.549	15.08	7.23	1.45
	113.32	19.91	67.83	0.00	0.0623	10.86	477.9	390.12	0.0561	419.6	7.554	15.07	7.24	1.45
	114.33	19.90	67.81	0.00	0.0623	10.86	477.9	390.28	0.0561	420.5	7.570	15.11	7.27	1.45
	115.35	19.91	67.81	0.00	0.0623	10.86	477.8	390.25	0.0562	420.7	7.572	15.12	7.28	1.45
	116.33	19.95	67.81	0.00	0.0622	10.87	478.2	390.57	0.0560	421.9	7.595	15.16	7.32	1.45
	117.34	19.93	67.83	0.00	0.0623	10.87	478.1	390.34	0.0561	421.1	7.579	15.13	7.29	1.45
	118.33	20.00	67.83	0.00	0.0623	10.88	478.8	390.96	0.0560	421.1	7.580	15.13	7.30	1.45
	119.34	20.00	67.81	0.00	0.0622	10.87	478.4	390.78	0.0559	418.7	7.536	15.05	7.21	1.45
	120.34	20.01	67.81	-0.00	0.0623	10.87	478.2	390.64	0.0561	420.0	7.560	15.10	7.26	1.45
	121.34	20.01	67.81	0.00	0.0622	10.85	477.3	389.93	0.0561	419.5	7.551	15.08	7.24	1.45
	122.34	20.00	67.83	-0.00	0.0621	10.84	477.1	389.57	0.0561	420.4	7.568	15.11	7.27	1.45
