Jul 27 2015 at 14:39:52
Frequency: 1.00Hz.
CO2
Zero:  Value:0.95  Date:18 Mar 2005	 at 07:22:33	
Span:  Value:1.00  Date:18 Mar 2005	 at 07:25:09	
H2O
Zero:  Value:0.71  Date:18 Mar 2005	 at 07:52:31	
Span:  Value:0.99  Date:18 Mar 2005	 at 11:44:01	
	Relative Time	Temperature	Pressure	Aux Input	CO2 Absorptance	CO2 mmol/m3	CO2 mg/m3	CO2 umol/mol	H2O Absorptance	H2O mmol/m3	H2O g/m3	H2O mmol/mol	H2O(°C)	Cooler Voltage
	0.45	30.08	67.86	-0.00	0.0622	10.83	476.3	402.19	0.0595	458.7	8.257	17.04	9.05	1.49
	1.44	30.10	67.83	0.00	0.0624	10.89	479.0	404.67	0.0593	460.3	8.286	17.11	9.11	1.49
	2.45	30.10	67.83	0.00	0.0619	10.82	476.1	402.16	0.0593	451.1	8.120	16.77	8.81	1.49
	3.45	30.17	67.83	-0.00	0.0617	10.74	472.4	399.17	0.0595	460.1	8.283	17.11	9.10	1.49
	4.45	30.20	67.83	0.00	0.0613	10.65	468.7	396.03	0.0613	481.3	8.663	17.89	9.77	1.49
	5.43	30.24	67.86	0.00	0.0613	10.66	469.1	396.32	0.0615	478.3	8.609	17.78	9.68	1.49
	6.46	30.24	67.83	-0.00	0.0611	10.60	466.4	394.15	0.0618	482.8	8.691	17.95	9.82	1.49
	7.50	30.26	67.86	0.00	0.0611	10.59	466.1	393.80	0.0620	483.9	8.711	17.99	9.86	1.49
	8.44	30.26	67.83	0.00	0.0610	10.59	466.1	393.94	0.0624	490.4	8.827	18.24	10.06	1.49
	9.44	30.24	67.83	0.00	0.0611	10.61	466.9	394.57	0.0629	496.7	8.941	18.47	10.25	1.49
	10.45	30.22	67.86	-0.00	0.0610	10.59	465.9	393.54	0.0622	492.3	8.861	18.30	10.11	1.49
	11.45	30.20	67.83	0.00	0.0610	10.59	465.8	393.58	0.0625	489.9	8.819	18.22	10.04	1.49
	12.45	30.18	67.83	-0.00	0.0611	10.60	466.2	393.93	0.0626	489.4	8.810	18.20	10.02	1.49
	13.46	30.18	67.86	-0.00	0.0611	10.60	466.6	394.12	0.0630	496.1	8.931	18.44	10.23	1.49
	14.51	30.16	67.83	0.00	0.0611	10.61	466.6	394.26	0.0630	496.0	8.929	18.44	10.22	1.49
	15.44	30.14	67.83	-0.00	0.0611	10.61	466.9	394.44	0.0631	496.6	8.939	18.46	10.24	1.49
	16.44	30.14	67.83	0.00	0.0611	10.61	466.8	394.32	0.0629	497.0	8.946	18.47	10.25	1.49
	17.43	30.12	67.83	0.00	0.0610	10.58	465.7	393.45	0.0625	490.9	8.836	18.25	10.06	1.49
	18.44	30.13	67.83	0.00	0.0611	10.59	466.2	393.82	0.0629	494.2	8.895	18.37	10.16	1.49
	19.42	30.13	67.85	0.00	0.0611	10.60	466.6	394.04	0.0632	498.2	8.967	18.51	10.28	1.49
	20.45	30.10	67.83	0.00	0.0612	10.61	467.0	394.51	0.0631	498.2	8.968	18.52	10.28	1.49
	21.51	30.10	67.81	0.00	0.0611	10.61	466.8	394.45	0.0632	498.2	8.968	18.53	10.28	1.49
	22.45	30.10	67.86	0.00	0.0611	10.60	466.6	393.99	0.0629	497.6	8.957	18.49	10.27	1.49
	23.45	30.06	67.86	0.00	0.0611	10.58	465.3	392.90	0.0635	496.7	8.941	18.45	10.24	1.49
	24.46	30.06	67.85	-0.00	0.0609	10.56	464.8	392.42	0.0625	489.6	8.814	18.19	10.02	1.49
	25.44	30.06	67.83	0.00	0.0610	10.59	465.7	393.39	0.0625	491.0	8.838	18.25	10.06	1.49
	26.46	30.08	67.86	-0.00	0.0611	10.59	466.1	393.56	0.0636	499.8	8.997	18.57	10.33	1.49
	27.46	30.06	67.83	-0.00	0.0611	10.60	466.6	394.11	0.0638	504.1	9.074	18.74	10.46	1.49
	28.44	30.06	67.86	0.00	0.0611	10.59	466.1	393.56	0.0648	514.6	9.264	19.12	10.77	1.49
	29.44	30.05	67.83	0.00	0.0611	10.60	466.2	393.77	0.0652	521.6	9.389	19.38	10.97	1.49
	30.45	30.07	67.86	-0.00	0.0611	10.60	466.5	393.90	0.0645	517.2	9.310	19.21	10.84	1.49
	31.43	30.03	67.83	0.00	0.0612	10.62	467.2	394.60	0.0642	510.9	9.197	18.99	10.66	1.49
	32.46	30.01	67.83	-0.00	0.0611	10.59	466.2	393.68	0.0636	503.0	9.053	18.69	10.42	1.49
	33.45	29.99	67.83	-0.00	0.0611	10.60	466.2	393.70	0.0640	506.9	9.125	18.83	10.54	1.49
	34.46	29.99	67.83	-0.00	0.0611	10.60	466.3	393.72	0.0646	513.7	9.247	19.09	10.74	1.49
	35.43	29.98	67.86	0.00	0.0611	10.60	466.5	393.72	0.0653	520.8	9.375	19.34	10.94	1.49
	36.46	29.99	67.88	-0.00	0.0612	10.61	466.8	393.85	0.0658	526.3	9.474	19.54	11.10	1.49
	37.44	29.99	67.86	-0.00	0.0612	10.62	467.3	394.42	0.0660	530.5	9.550	19.70	11.22	1.49
	38.44	29.96	67.86	0.00	0.0612	10.62	467.4	394.45	0.0660	532.2	9.580	19.76	11.27	1.49
	39.45	29.99	67.85	-0.00	0.0612	10.63	467.7	394.78	0.0663	534.2	9.615	19.84	11.33	1.49
	40.44	29.99	67.83	0.00	0.0612	10.62	467.4	394.66	0.0658	528.2	9.508	19.63	11.16	1.49
	41.53	29.99	67.83	-0.00	0.0612	10.63	467.8	395.04	0.0662	532.7	9.589	19.79	11.28	1.49
	42.43	30.02	67.83	0.00	0.0613	10.64	468.1	395.36	0.0661	532.4	9.583	19.78	11.28	1.49
	43.45	30.01	67.83	0.00	0.0613	10.65	468.5	395.59	0.0658	529.6	9.532	19.68	11.20	1.49
	44.51	30.03	67.83	0.00	0.0613	10.65	468.6	395.78	0.0654	525.5	9.459	19.53	11.08	1.49
	45.44	30.03	67.83	0.00	0.0612	10.64	468.0	395.27	0.0649	517.1	9.309	19.22	10.84	1.49
	46.44	30.03	67.83	0.00	0.0613	10.65	468.4	395.57	0.0660	531.0	9.558	19.73	11.24	1.49
	47.44	30.02	67.83	0.00	0.0612	10.63	467.7	395.02	0.0657	523.0	9.415	19.44	11.01	1.49
	48.52	30.04	67.83	-0.00	0.0613	10.64	468.0	395.28	0.0669	541.6	9.748	20.13	11.54	1.49
	49.45	30.06	67.83	-0.00	0.0613	10.64	468.2	395.49	0.0668	539.6	9.713	20.06	11.48	1.49
	50.44	30.05	67.83	0.00	0.0613	10.64	468.4	395.58	0.0664	536.2	9.652	19.93	11.39	1.49
	51.45	30.05	67.83	-0.00	0.0613	10.65	468.7	395.87	0.0669	538.4	9.692	20.01	11.45	1.49
	52.48	30.06	67.83	-0.00	0.0613	10.65	468.8	395.96	0.0668	537.4	9.674	19.97	11.42	1.49
	53.45	30.06	67.83	0.00	0.0614	10.66	469.1	396.22	0.0680	552.3	9.942	20.53	11.83	1.49
	54.43	30.06	67.81	0.00	0.0614	10.65	468.8	396.11	0.0684	558.9	10.061	20.78	12.02	1.49
	55.44	30.05	67.83	0.00	0.0614	10.67	469.5	396.56	0.0683	558.5	10.054	20.76	12.00	1.49
	56.43	30.05	67.83	0.00	0.0615	10.68	470.1	397.05	0.0688	564.8	10.166	20.99	12.17	1.49
	57.44	30.05	67.81	0.00	0.0614	10.68	469.8	396.94	0.0687	562.4	10.124	20.91	12.11	1.49
	58.42	30.04	67.83	0.00	0.0614	10.67	469.7	396.66	0.0680	557.3	10.032	20.71	11.97	1.49
	59.47	30.06	67.83	-0.00	0.0613	10.65	468.6	395.77	0.0673	546.9	9.844	20.33	11.69	1.49
	60.45	30.05	67.83	-0.00	0.0614	10.66	469.1	396.18	0.0680	552.8	9.950	20.54	11.85	1.49
	61.45	30.05	67.83	-0.00	0.0614	10.68	469.9	396.85	0.0683	558.4	10.051	20.75	12.00	1.49
	62.56	30.05	67.83	-0.00	0.0615	10.69	470.2	397.14	0.0687	561.5	10.107	20.87	12.08	1.49
	63.45	30.03	67.85	0.00	0.0615	10.68	470.1	396.85	0.0691	566.3	10.193	21.04	12.21	1.49
	64.46	30.05	67.83	-0.00	0.0615	10.69	470.2	397.10	0.0694	569.5	10.251	21.16	12.30	1.49
	65.44	30.05	67.83	0.00	0.0615	10.68	470.0	396.97	0.0694	571.3	10.283	21.23	12.35	1.49
	66.46	30.07	67.85	-0.00	0.0615	10.70	470.6	397.35	0.0692	570.8	10.274	21.21	12.33	1.50
	67.45	30.04	67.83	-0.00	0.0614	10.68	469.7	396.70	0.0691	567.2	10.210	21.08	12.24	1.49
	68.44	30.05	67.83	0.00	0.0614	10.67	469.6	396.58	0.0690	566.6	10.199	21.06	12.22	1.49
	69.44	30.07	67.86	0.00	0.0615	10.68	469.7	396.60	0.0689	565.1	10.172	20.99	12.18	1.49
	70.43	30.05	67.83	0.00	0.0615	10.68	469.9	396.88	0.0690	565.5	10.179	21.01	12.19	1.49
	71.43	30.03	67.86	0.00	0.0615	10.69	470.2	396.93	0.0688	564.7	10.164	20.97	12.17	1.49
	72.45	30.01	67.86	0.00	0.0615	10.68	470.0	396.78	0.0687	563.3	10.140	20.92	12.13	1.50
	73.46	30.03	67.86	-0.00	0.0615	10.68	469.9	396.67	0.0691	565.6	10.181	21.01	12.19	1.49
	74.44	30.03	67.86	0.00	0.0616	10.71	471.1	397.69	0.0698	576.0	10.368	21.39	12.47	1.49
	75.44	30.02	67.83	-0.00	0.0616	10.72	471.6	398.27	0.0698	576.7	10.381	21.43	12.49	1.49
	76.53	30.05	67.85	-0.00	0.0617	10.72	471.8	398.35	0.0706	583.1	10.496	21.66	12.66	1.49
	77.44	30.05	67.86	0.00	0.0617	10.74	472.5	398.91	0.0707	586.8	10.563	21.80	12.76	1.49
	78.44	30.04	67.83	0.00	0.0617	10.74	472.7	399.27	0.0706	587.5	10.576	21.83	12.77	1.50
	79.45	30.06	67.83	-0.00	0.0615	10.70	470.7	397.53	0.0700	580.1	10.442	21.56	12.58	1.49
	80.43	30.07	67.83	0.00	0.0616	10.71	471.4	398.19	0.0702	581.5	10.467	21.61	12.62	1.49
	81.51	30.04	67.85	0.00	0.0617	10.72	471.6	398.17	0.0704	582.9	10.492	21.65	12.65	1.49
	82.43	30.04	67.83	0.00	0.0616	10.70	470.6	397.50	0.0702	580.7	10.452	21.58	12.59	1.49
	83.44	30.03	67.83	0.00	0.0616	10.70	470.9	397.73	0.0699	577.5	10.395	21.46	12.51	1.49
	84.43	30.07	67.86	0.00	0.0615	10.69	470.5	397.29	0.0702	581.7	10.471	21.61	12.62	1.49
	85.44	30.05	67.83	0.00	0.0616	10.71	471.1	397.88	0.0701	578.8	10.418	21.51	12.54	1.49
	86.42	30.05	67.83	0.00	0.0616	10.70	470.8	397.62	0.0701	580.1	10.442	21.56	12.58	1.49
	87.44	30.06	67.83	0.00	0.0615	10.69	470.4	397.35	0.0699	577.3	10.391	21.46	12.51	1.49
	88.44	30.04	67.83	0.00	0.0616	10.71	471.4	398.10	0.0706	583.0	10.495	21.67	12.66	1.49
	89.45	30.06	67.83	0.00	0.0616	10.71	471.2	398.01	0.0705	584.6	10.523	21.73	12.70	1.50
	90.45	30.10	67.81	0.00	0.0617	10.74	472.3	399.12	0.0707	587.4	10.573	21.84	12.77	1.50
	91.46	30.05	67.83	-0.00	0.0617	10.73	472.2	398.78	0.0707	587.7	10.579	21.84	12.78	1.50
	92.45	30.05	67.83	-0.00	0.0617	10.73	472.1	398.73	0.0707	586.2	10.552	21.79	12.74	1.49
	93.43	30.07	67.83	0.00	0.0617	10.73	472.0	398.66	0.0707	586.6	10.559	21.80	12.75	1.50
	94.44	30.02	67.83	0.00	0.0618	10.75	473.1	399.51	0.0710	589.8	10.617	21.92	12.83	1.50
	95.43	30.01	67.83	0.00	0.0618	10.75	472.8	399.32	0.0710	591.0	10.638	21.96	12.86	1.50
	96.45	29.99	67.83	-0.00	0.0617	10.74	472.6	399.07	0.0710	590.9	10.636	21.95	12.86	1.50
	97.44	29.96	67.83	0.00	0.0617	10.73	472.2	398.71	0.0710	590.4	10.628	21.93	12.84	1.50
	98.45	29.95	67.83	-0.00	0.0616	10.73	472.0	398.56	0.0709	590.9	10.635	21.95	12.86	1.50
	99.44	29.97	67.83	0.00	0.0617	10.73	472.1	398.65	0.0708	588.5	10.594	21.87	12.80	1.50
	100.43	29.94	67.83	0.00	0.0618	10.75	473.1	399.40	0.0710	590.5	10.629	21.94	12.85	1.50
	101.43	29.94	67.83	0.00	0.0618	10.75	473.0	399.35	0.0712	592.2	10.660	22.00	12.89	1.50
	102.45	29.94	67.83	-0.00	0.0618	10.75	472.8	399.22	0.0714	594.9	10.708	22.10	12.96	1.50
	103.44	29.97	67.86	-0.00	0.0617	10.75	473.0	399.26	0.0714	597.1	10.747	22.17	13.02	1.50
	104.43	29.96	67.83	0.00	0.0617	10.73	471.9	398.46	0.0710	590.7	10.633	21.95	12.85	1.50
	105.46	29.96	67.83	-0.00	0.0618	10.75	473.1	399.46	0.0713	594.1	10.693	22.07	12.94	1.50
	106.45	30.01	67.83	-0.00	0.0617	10.74	472.6	399.11	0.0710	592.3	10.661	22.01	12.89	1.50
	107.45	30.01	67.83	-0.00	0.0618	10.75	473.1	399.54	0.0713	594.5	10.700	22.09	12.95	1.50
	108.45	30.01	67.85	0.00	0.0618	10.75	472.9	399.23	0.0713	595.3	10.715	22.11	12.97	1.50
	109.45	30.01	67.83	-0.00	0.0618	10.75	473.2	399.59	0.0715	597.2	10.749	22.19	13.02	1.50
	110.45	30.03	67.86	0.00	0.0619	10.77	473.8	400.02	0.0717	599.0	10.782	22.25	13.07	1.50
	111.45	30.03	67.81	0.00	0.0619	10.79	474.6	400.99	0.0719	602.6	10.846	22.40	13.16	1.50
	112.45	30.04	67.83	0.00	0.0620	10.80	475.2	401.35	0.0727	610.9	10.997	22.70	13.37	1.50
	113.43	30.07	67.86	0.00	0.0621	10.82	476.0	401.90	0.0728	613.6	11.045	22.80	13.44	1.50
	114.44	30.00	67.83	0.00	0.0620	10.79	474.6	400.81	0.0725	609.2	10.966	22.64	13.33	1.50
	115.44	30.01	67.83	-0.00	0.0620	10.80	475.2	401.32	0.0723	608.3	10.949	22.60	13.30	1.50
	116.45	30.01	67.85	-0.00	0.0621	10.83	476.7	402.44	0.0726	611.3	11.004	22.71	13.38	1.50
	117.44	30.00	67.86	0.00	0.0621	10.83	476.6	402.30	0.0725	610.8	10.995	22.69	13.37	1.50
	118.45	30.01	67.83	-0.00	0.0620	10.82	476.0	401.94	0.0723	609.7	10.975	22.66	13.34	1.50
	119.43	30.01	67.83	0.00	0.0620	10.80	475.4	401.42	0.0724	608.5	10.954	22.61	13.31	1.50
	120.45	30.01	67.86	-0.00	0.0621	10.82	476.2	402.01	0.0726	611.3	11.003	22.70	13.38	1.50
	121.45	29.97	67.83	0.00	0.0623	10.85	477.4	403.09	0.0731	615.4	11.078	22.86	13.48	1.50
	122.44	29.97	67.83	-0.00	0.0621	10.82	476.2	402.13	0.0728	612.7	11.028	22.76	13.41	1.50
	123.44	30.01	67.83	0.00	0.0623	10.85	477.4	403.18	0.0730	614.0	11.053	22.82	13.45	1.50
	124.44	29.99	67.83	-0.00	0.0624	10.89	479.0	404.43	0.0733	619.0	11.142	23.00	13.57	1.50
