Jul 27 2015 at 13:01:51
Frequency: 1.00Hz.
CO2
Zero:  Value:0.95  Date:18 Mar 2005	 at 07:22:33	
Span:  Value:1.00  Date:18 Mar 2005	 at 07:25:09	
H2O
Zero:  Value:0.71  Date:18 Mar 2005	 at 07:52:31	
Span:  Value:0.99  Date:18 Mar 2005	 at 11:44:01	
	Relative Time	Temperature	Pressure	Aux Input	CO2 Absorptance	CO2 mmol/m3	CO2 mg/m3	CO2 umol/mol	H2O Absorptance	H2O mmol/m3	H2O g/m3	H2O mmol/mol	H2O(°C)	Cooler Voltage
	0.19	28.69	67.86	0.00	0.0612	10.63	467.7	393.11	0.0610	470.8	8.475	17.41	9.37	1.54
	1.19	28.72	67.88	0.00	0.0613	10.68	469.9	394.84	0.0603	458.8	8.259	16.96	8.99	1.54
	2.20	28.74	67.88	-0.00	0.0611	10.60	466.6	392.11	0.0611	475.4	8.557	17.58	9.52	1.54
	3.18	28.76	67.88	0.00	0.0610	10.55	464.4	390.26	0.0617	486.7	8.760	18.00	9.87	1.54
	4.21	28.74	67.86	-0.00	0.0610	10.59	465.8	391.53	0.0610	476.2	8.571	17.61	9.54	1.54
	5.21	28.74	67.88	-0.00	0.0610	10.56	464.8	390.57	0.0617	486.6	8.758	17.99	9.86	1.54
	6.21	28.72	67.86	-0.00	0.0609	10.55	464.0	390.02	0.0629	503.2	9.057	18.61	10.36	1.54
	7.21	28.72	67.86	-0.00	0.0610	10.57	465.1	390.95	0.0622	482.0	8.675	17.83	9.72	1.54
	8.21	28.71	67.83	-0.00	0.0609	10.56	464.6	390.66	0.0630	493.5	8.883	18.26	10.07	1.54
	9.19	28.76	67.88	0.00	0.0609	10.54	463.9	389.89	0.0633	500.8	9.015	18.52	10.30	1.54
	10.19	28.76	67.91	0.00	0.0607	10.53	463.3	389.20	0.0627	493.4	8.881	18.24	10.07	1.54
	11.20	28.75	67.91	-0.00	0.0607	10.52	463.1	389.01	0.0624	490.6	8.831	18.13	9.99	1.54
	12.20	28.75	67.86	0.00	0.0607	10.52	462.9	389.11	0.0623	487.7	8.778	18.04	9.90	1.54
	13.20	28.76	67.86	0.00	0.0607	10.52	462.7	388.97	0.0624	488.0	8.785	18.05	9.91	1.54
	14.20	28.78	67.91	0.00	0.0607	10.51	462.5	388.59	0.0629	492.6	8.867	18.21	10.05	1.54
	15.20	28.77	67.89	0.00	0.0606	10.49	461.7	387.97	0.0635	501.5	9.028	18.54	10.32	1.54
	16.27	28.76	67.86	-0.00	0.0607	10.50	462.1	388.51	0.0633	500.7	9.013	18.52	10.29	1.54
	17.21	28.80	67.89	0.00	0.0607	10.52	462.7	388.88	0.0632	498.4	8.971	18.43	10.22	1.54
	18.20	28.74	67.88	-0.00	0.0606	10.50	462.0	388.18	0.0640	505.7	9.102	18.70	10.44	1.54
	19.19	28.74	67.88	0.00	0.0606	10.49	461.7	388.01	0.0640	506.8	9.123	18.74	10.47	1.54
	20.19	28.69	67.88	0.00	0.0606	10.50	462.0	388.14	0.0631	498.4	8.971	18.42	10.22	1.54
	21.20	28.74	67.88	-0.00	0.0608	10.52	463.1	389.13	0.0624	491.2	8.842	18.16	10.00	1.54
	22.20	28.74	67.88	0.00	0.0608	10.53	463.2	389.24	0.0623	488.2	8.787	18.05	9.91	1.54
	23.18	28.76	67.86	0.00	0.0608	10.53	463.3	389.48	0.0623	487.8	8.780	18.04	9.90	1.54
	24.18	28.75	67.88	0.00	0.0607	10.52	463.0	389.05	0.0622	486.8	8.763	18.00	9.87	1.54
	25.19	28.76	67.86	0.00	0.0607	10.52	462.7	388.96	0.0623	487.7	8.779	18.04	9.90	1.54
	26.18	28.78	67.90	0.00	0.0606	10.49	461.6	387.79	0.0623	488.2	8.788	18.05	9.92	1.54
	27.19	28.78	67.86	0.00	0.0605	10.48	461.0	387.54	0.0625	490.6	8.831	18.15	9.99	1.54
	28.20	28.78	67.88	0.00	0.0605	10.46	460.4	386.93	0.0628	493.2	8.877	18.24	10.07	1.54
	29.19	28.79	67.89	0.00	0.0605	10.46	460.3	386.80	0.0629	494.3	8.897	18.28	10.10	1.54
	30.20	28.81	67.86	-0.00	0.0604	10.45	459.8	386.62	0.0628	494.3	8.898	18.29	10.10	1.54
	31.20	28.79	67.88	-0.00	0.0604	10.45	459.6	386.28	0.0627	492.4	8.863	18.21	10.04	1.54
	32.18	28.76	67.88	0.00	0.0604	10.45	459.6	386.28	0.0625	490.0	8.820	18.12	9.97	1.54
	33.18	28.78	67.86	0.00	0.0605	10.45	459.9	386.67	0.0623	488.4	8.792	18.07	9.92	1.54
	34.20	28.76	67.86	0.00	0.0605	10.46	460.3	386.94	0.0621	486.8	8.763	18.01	9.87	1.54
	35.19	28.74	67.86	-0.00	0.0605	10.46	460.3	386.92	0.0619	484.3	8.718	17.91	9.79	1.54
	36.21	28.73	67.91	0.00	0.0605	10.46	460.1	386.51	0.0617	481.8	8.673	17.81	9.72	1.54
	37.21	28.72	67.86	0.00	0.0605	10.46	460.4	386.99	0.0616	480.0	8.641	17.75	9.66	1.54
	38.19	28.72	67.91	0.00	0.0605	10.47	460.7	386.95	0.0617	481.7	8.670	17.80	9.71	1.54
	39.20	28.74	67.86	0.00	0.0606	10.48	460.9	387.47	0.0619	483.3	8.700	17.88	9.76	1.54
	40.26	28.73	67.88	0.00	0.0605	10.48	461.0	387.41	0.0620	484.6	8.722	17.92	9.80	1.54
	41.18	28.74	67.91	0.00	0.0606	10.47	460.8	387.09	0.0620	484.1	8.714	17.89	9.79	1.54
	42.20	28.73	67.88	0.00	0.0605	10.48	461.0	387.39	0.0621	485.6	8.740	17.95	9.83	1.54
	43.26	28.74	67.89	0.00	0.0605	10.47	460.6	387.04	0.0619	483.4	8.700	17.87	9.76	1.54
	44.18	28.74	67.88	0.00	0.0604	10.45	459.8	386.40	0.0617	481.5	8.666	17.80	9.71	1.54
	45.21	28.76	67.88	-0.00	0.0605	10.45	459.9	386.46	0.0619	484.2	8.716	17.90	9.79	1.54
	46.25	28.75	67.88	0.00	0.0604	10.45	459.7	386.28	0.0627	490.2	8.823	18.12	9.97	1.54
	47.21	28.78	67.88	-0.00	0.0603	10.42	458.4	385.27	0.0631	497.8	8.961	18.41	10.21	1.54
	48.19	28.79	67.91	0.00	0.0604	10.45	459.6	386.15	0.0635	499.9	8.998	18.48	10.27	1.54
	49.17	28.81	67.88	0.00	0.0603	10.43	458.8	385.66	0.0636	503.0	9.054	18.60	10.36	1.54
	50.22	28.83	67.89	0.00	0.0603	10.42	458.6	385.45	0.0634	501.5	9.027	18.55	10.32	1.55
	51.22	28.85	67.86	-0.00	0.0602	10.40	457.6	384.79	0.0632	501.8	9.033	18.57	10.33	1.55
	52.18	28.87	67.88	0.00	0.0601	10.38	456.8	384.04	0.0641	509.5	9.171	18.85	10.56	1.55
	53.21	28.87	67.88	-0.00	0.0602	10.41	457.8	384.90	0.0641	509.0	9.162	18.83	10.54	1.55
	54.20	28.91	67.88	0.00	0.0601	10.39	457.3	384.53	0.0634	502.7	9.049	18.60	10.36	1.55
	55.19	28.87	67.86	0.00	0.0601	10.38	456.9	384.27	0.0634	499.8	8.997	18.50	10.27	1.55
	56.19	28.87	67.89	0.00	0.0601	10.38	456.5	383.75	0.0634	501.5	9.026	18.55	10.32	1.55
	57.27	28.89	67.89	-0.00	0.0601	10.39	457.2	384.33	0.0629	494.1	8.893	18.28	10.10	1.55
	58.20	28.87	67.88	-0.00	0.0601	10.38	456.6	383.84	0.0635	501.0	9.017	18.53	10.30	1.55
	59.19	28.85	67.88	0.00	0.0602	10.39	457.0	384.18	0.0631	498.4	8.971	18.43	10.23	1.55
	60.19	28.89	67.89	0.00	0.0601	10.39	457.0	384.16	0.0631	497.5	8.954	18.40	10.20	1.55
	61.20	28.90	67.88	-0.00	0.0601	10.37	456.2	383.58	0.0638	504.0	9.071	18.64	10.40	1.55
	62.18	28.90	67.91	0.00	0.0601	10.38	456.9	384.00	0.0640	506.5	9.117	18.73	10.47	1.55
	63.20	28.89	67.88	0.00	0.0601	10.38	456.7	383.98	0.0649	512.3	9.221	18.95	10.64	1.55
	64.19	28.87	67.86	0.00	0.0601	10.38	456.9	384.27	0.0639	508.2	9.148	18.81	10.52	1.55
	65.21	28.87	67.91	0.00	0.0601	10.40	457.4	384.40	0.0650	514.7	9.264	19.03	10.71	1.55
	66.28	28.85	67.86	-0.00	0.0599	10.32	454.2	381.93	0.0656	522.8	9.411	19.35	10.95	1.55
	67.20	28.87	67.86	-0.00	0.0601	10.36	456.0	383.54	0.0648	517.1	9.308	19.13	10.78	1.55
	68.20	28.89	67.89	0.00	0.0601	10.38	456.7	383.90	0.0653	522.2	9.399	19.31	10.93	1.55
	69.20	28.85	67.89	0.00	0.0600	10.35	455.6	382.94	0.0650	519.6	9.353	19.22	10.85	1.55
	70.20	28.85	67.88	0.00	0.0599	10.35	455.2	382.64	0.0661	530.5	9.549	19.62	11.17	1.55
	71.18	28.83	67.89	0.00	0.0599	10.33	454.5	382.05	0.0665	535.1	9.632	19.79	11.29	1.55
	72.20	28.88	67.88	0.00	0.0599	10.33	454.6	382.17	0.0663	531.6	9.570	19.67	11.20	1.55
	73.18	28.81	67.88	0.00	0.0599	10.33	454.5	381.99	0.0662	534.5	9.621	19.77	11.28	1.55
	74.21	28.81	67.88	-0.00	0.0600	10.35	455.4	382.73	0.0660	530.1	9.542	19.61	11.15	1.55
	75.19	28.79	67.86	0.00	0.0602	10.38	456.6	383.93	0.0651	523.1	9.416	19.35	10.95	1.55
	76.19	28.79	67.86	-0.00	0.0601	10.38	456.6	383.93	0.0647	515.6	9.281	19.07	10.73	1.55
	77.20	28.84	67.86	0.00	0.0600	10.36	455.9	383.36	0.0650	517.9	9.322	19.16	10.80	1.55
	78.19	28.81	67.88	0.00	0.0599	10.32	453.9	381.54	0.0658	528.7	9.517	19.55	11.11	1.55
	79.19	28.86	67.88	0.00	0.0599	10.34	454.9	382.41	0.0655	526.4	9.474	19.47	11.05	1.55
	80.20	28.85	67.86	0.00	0.0599	10.34	454.9	382.55	0.0659	527.9	9.502	19.53	11.09	1.55
	81.20	28.85	67.86	-0.00	0.0600	10.34	455.1	382.67	0.0656	529.4	9.529	19.59	11.13	1.55
	82.21	28.87	67.89	0.00	0.0599	10.33	454.5	382.06	0.0661	528.9	9.520	19.56	11.12	1.55
	83.19	28.86	67.89	0.00	0.0598	10.32	454.2	381.76	0.0666	537.9	9.682	19.90	11.37	1.55
	84.19	28.83	67.86	-0.00	0.0599	10.34	455.0	382.64	0.0661	530.7	9.553	19.64	11.17	1.55
	85.19	28.88	67.88	0.00	0.0601	10.37	456.2	383.52	0.0656	527.5	9.496	19.51	11.08	1.55
	86.19	28.85	67.88	0.00	0.0601	10.37	456.3	383.56	0.0654	524.3	9.438	19.39	10.99	1.55
	87.19	28.87	67.86	0.00	0.0601	10.37	456.4	383.86	0.0654	522.8	9.411	19.35	10.95	1.55
	88.17	28.89	67.89	0.00	0.0599	10.31	453.8	381.50	0.0658	528.3	9.510	19.54	11.10	1.55
	89.22	28.93	67.88	-0.00	0.0599	10.33	454.4	382.10	0.0661	531.9	9.573	19.68	11.21	1.55
	90.20	28.95	67.86	-0.00	0.0597	10.29	452.6	380.77	0.0672	544.2	9.796	20.14	11.56	1.55
	91.20	28.91	67.88	-0.00	0.0597	10.30	453.1	380.98	0.0670	546.6	9.840	20.22	11.62	1.55
	92.20	28.93	67.88	0.00	0.0596	10.27	452.1	380.13	0.0673	534.2	9.616	19.76	11.27	1.55
	93.19	28.91	67.86	0.00	0.0596	10.23	450.1	378.60	0.0675	578.2	10.407	21.40	12.47	1.55
	94.19	28.95	67.88	0.00	0.0597	10.29	453.0	380.91	0.0663	527.1	9.488	19.50	11.07	1.55
	95.21	28.89	67.88	-0.00	0.0597	10.28	452.4	380.35	0.0664	538.8	9.698	19.93	11.40	1.55
	96.25	28.93	67.88	0.00	0.0598	10.33	454.4	382.12	0.0662	522.3	9.402	19.33	10.94	1.56
	97.20	28.87	67.88	-0.00	0.0596	10.28	452.3	380.25	0.0670	542.8	9.770	20.08	11.51	1.55
	98.19	28.85	67.88	0.00	0.0595	10.25	451.2	379.27	0.0694	573.7	10.326	21.22	12.35	1.55
	99.19	28.85	67.86	-0.00	0.0595	10.26	451.4	379.56	0.0692	566.5	10.197	20.96	12.16	1.56
	100.20	28.85	67.88	-0.00	0.0595	10.24	450.5	378.69	0.0692	571.8	10.292	21.15	12.30	1.55
	101.18	28.85	67.86	0.00	0.0596	10.27	451.7	379.87	0.0674	540.4	9.728	20.00	11.44	1.56
	102.20	28.85	67.88	0.00	0.0594	10.22	449.8	378.14	0.0709	578.7	10.417	21.40	12.48	1.56
	103.19	28.87	67.86	0.00	0.0594	10.21	449.4	377.95	0.0707	590.8	10.635	21.86	12.80	1.56
	104.19	28.87	67.86	0.00	0.0594	10.22	449.9	378.33	0.0692	571.9	10.295	21.16	12.30	1.56
	105.27	28.91	67.91	0.00	0.0596	10.25	451.0	379.09	0.0675	551.0	9.917	20.38	11.74	1.56
	106.19	28.91	67.86	0.00	0.0597	10.29	452.7	380.81	0.0664	536.2	9.651	19.84	11.33	1.56
	107.19	28.91	67.88	0.00	0.0597	10.29	452.9	380.76	0.0664	535.4	9.638	19.81	11.31	1.56
	108.19	28.92	67.89	0.00	0.0594	10.25	450.8	379.03	0.0690	555.8	10.005	20.56	11.87	1.56
	109.20	28.93	67.88	-0.00	0.0596	10.25	451.1	379.32	0.0674	551.0	9.918	20.39	11.74	1.56
	110.18	28.97	67.91	0.00	0.0596	10.26	451.4	379.52	0.0671	543.9	9.789	20.12	11.55	1.56
	111.18	28.95	67.86	0.00	0.0596	10.27	452.0	380.24	0.0669	542.7	9.769	20.09	11.51	1.56
	112.21	28.93	67.88	-0.00	0.0597	10.29	452.9	380.87	0.0666	537.8	9.681	19.90	11.38	1.56
	113.30	28.91	67.88	-0.00	0.0596	10.28	452.3	380.27	0.0669	541.5	9.747	20.03	11.48	1.56
	114.21	28.89	67.88	-0.00	0.0595	10.25	450.9	379.06	0.0676	547.1	9.848	20.24	11.63	1.56
	115.21	28.88	67.88	-0.00	0.0593	10.19	448.3	376.88	0.0692	567.6	10.216	20.99	12.19	1.56
	116.19	28.89	67.88	0.00	0.0592	10.18	448.0	376.65	0.0696	571.5	10.287	21.14	12.29	1.56
	117.20	28.91	67.86	-0.00	0.0592	10.18	447.8	376.61	0.0703	580.7	10.453	21.49	12.54	1.56
	118.19	28.91	67.90	0.00	0.0591	10.16	446.9	375.63	0.0704	585.1	10.532	21.64	12.65	1.56
	119.19	28.90	67.86	0.00	0.0592	10.17	447.5	376.37	0.0702	579.3	10.428	21.44	12.50	1.56
	120.20	28.91	67.88	-0.00	0.0594	10.22	449.6	377.98	0.0676	553.1	9.956	20.46	11.80	1.56
	121.18	28.93	67.86	0.00	0.0595	10.23	450.3	378.75	0.0675	545.8	9.825	20.20	11.60	1.56
	122.20	28.94	67.88	0.00	0.0596	10.24	450.6	378.92	0.0685	554.0	9.971	20.50	11.82	1.56
	123.18	28.93	67.91	0.00	0.0592	10.17	447.7	376.30	0.0692	571.5	10.287	21.14	12.30	1.56
	124.19	28.92	67.86	0.00	0.0595	10.22	449.8	378.36	0.0693	570.1	10.261	21.10	12.26	1.56
	125.21	28.99	67.88	-0.00	0.0594	10.22	449.5	378.04	0.0688	566.2	10.191	20.95	12.16	1.56
	126.20	28.99	67.86	-0.00	0.0593	10.21	449.1	377.78	0.0692	565.1	10.171	20.92	12.13	1.56
	127.19	29.01	67.88	0.00	0.0592	10.17	447.7	376.52	0.0682	559.2	10.066	20.69	11.97	1.56
