Jul 27 2015 at 13:04:55
Frequency: 1.00Hz.
CO2
Zero:  Value:0.95  Date:18 Mar 2005	 at 07:22:33	
Span:  Value:1.00  Date:18 Mar 2005	 at 07:25:09	
H2O
Zero:  Value:0.71  Date:18 Mar 2005	 at 07:52:31	
Span:  Value:0.99  Date:18 Mar 2005	 at 11:44:01	
	Relative Time	Temperature	Pressure	Aux Input	CO2 Absorptance	CO2 mmol/m3	CO2 mg/m3	CO2 umol/mol	H2O Absorptance	H2O mmol/m3	H2O g/m3	H2O mmol/mol	H2O(°C)	Cooler Voltage
	0.39	29.12	67.86	0.00	0.0613	10.66	469.1	394.80	0.0584	445.6	8.020	16.50	8.57	1.57
	1.37	29.08	67.88	0.00	0.0612	10.61	466.9	392.82	0.0581	440.5	7.929	16.31	8.41	1.57
	2.40	29.08	67.91	-0.00	0.0608	10.55	464.2	390.35	0.0578	439.2	7.906	16.25	8.36	1.57
	3.39	29.10	67.89	-0.00	0.0609	10.56	464.8	390.99	0.0582	442.6	7.968	16.38	8.48	1.57
	4.40	29.08	67.86	-0.00	0.0611	10.61	466.9	392.96	0.0590	452.5	8.144	16.75	8.80	1.57
	5.38	29.08	67.91	0.00	0.0609	10.58	465.3	391.34	0.0585	450.1	8.102	16.66	8.72	1.57
	6.40	29.06	67.88	-0.00	0.0609	10.54	463.9	390.22	0.0589	450.0	8.100	16.66	8.72	1.57
	7.39	29.04	67.86	0.00	0.0610	10.59	465.8	391.94	0.0586	447.6	8.056	16.57	8.64	1.57
	8.39	29.04	67.88	0.00	0.0609	10.56	464.4	390.66	0.0584	446.8	8.042	16.54	8.61	1.57
	9.39	29.04	67.88	-0.00	0.0610	10.57	465.1	391.20	0.0584	441.8	7.952	16.35	8.44	1.57
	10.39	29.04	67.83	0.00	0.0609	10.56	464.8	391.28	0.0593	453.5	8.162	16.80	8.83	1.58
	11.40	29.02	67.88	-0.00	0.0607	10.50	462.0	388.62	0.0588	449.3	8.087	16.63	8.69	1.58
	12.39	29.06	67.86	0.00	0.0608	10.53	463.3	389.90	0.0587	447.9	8.062	16.58	8.65	1.58
	13.40	29.09	67.86	-0.00	0.0608	10.53	463.2	389.84	0.0589	449.4	8.090	16.64	8.70	1.57
	14.38	29.06	67.86	0.00	0.0607	10.51	462.3	389.00	0.0588	447.7	8.058	16.57	8.64	1.57
	15.46	29.08	67.86	0.00	0.0606	10.50	461.8	388.64	0.0592	452.2	8.139	16.74	8.79	1.57
	16.38	29.08	67.86	0.00	0.0604	10.45	459.9	387.06	0.0595	458.5	8.253	16.98	9.00	1.58
	17.38	29.08	67.88	0.00	0.0604	10.45	459.7	386.76	0.0593	454.8	8.186	16.83	8.88	1.58
	18.41	29.10	67.89	-0.00	0.0607	10.51	462.4	388.99	0.0595	456.2	8.212	16.89	8.92	1.57
	19.39	29.10	67.88	0.00	0.0606	10.49	461.7	388.44	0.0593	456.0	8.207	16.88	8.92	1.57
	20.41	29.08	67.88	-0.00	0.0605	10.47	460.7	387.54	0.0593	454.9	8.187	16.84	8.88	1.58
	21.40	29.08	67.88	-0.00	0.0605	10.46	460.4	387.27	0.0591	452.8	8.151	16.76	8.81	1.58
	22.39	29.09	67.88	0.00	0.0605	10.46	460.2	387.20	0.0591	452.7	8.148	16.76	8.81	1.58
	23.40	29.06	67.86	0.00	0.0603	10.44	459.4	386.57	0.0590	451.8	8.133	16.73	8.78	1.58
	24.40	29.07	67.86	-0.00	0.0603	10.42	458.5	385.82	0.0589	450.8	8.114	16.69	8.74	1.58
	25.38	29.04	67.88	0.00	0.0603	10.41	458.1	385.33	0.0588	449.6	8.092	16.64	8.70	1.58
	26.40	29.08	67.86	0.00	0.0603	10.41	458.1	385.56	0.0587	447.2	8.050	16.56	8.63	1.58
	27.39	29.09	67.86	0.00	0.0602	10.41	457.9	385.37	0.0585	446.1	8.029	16.52	8.59	1.58
	28.38	29.09	67.85	0.00	0.0602	10.40	457.8	385.28	0.0584	445.8	8.024	16.51	8.58	1.58
	29.41	29.06	67.86	-0.00	0.0603	10.41	458.3	385.64	0.0585	446.3	8.033	16.53	8.60	1.58
	30.39	29.07	67.88	-0.00	0.0603	10.42	458.5	385.72	0.0585	446.6	8.038	16.53	8.61	1.58
	31.40	29.08	67.86	0.00	0.0603	10.42	458.6	385.95	0.0586	446.7	8.040	16.54	8.61	1.58
	32.40	29.08	67.89	0.00	0.0603	10.42	458.4	385.60	0.0587	448.0	8.064	16.58	8.65	1.58
	33.40	29.11	67.86	-0.00	0.0603	10.42	458.3	385.69	0.0587	448.4	8.071	16.61	8.67	1.58
	34.40	29.08	67.86	-0.00	0.0602	10.41	458.1	385.53	0.0587	448.8	8.078	16.62	8.68	1.58
	35.48	29.08	67.83	-0.00	0.0602	10.41	457.9	385.55	0.0588	449.7	8.095	16.66	8.71	1.58
	36.38	29.11	67.86	0.00	0.0603	10.41	458.0	385.46	0.0590	449.7	8.095	16.66	8.71	1.58
	37.38	29.09	67.86	0.00	0.0603	10.41	458.2	385.65	0.0589	450.7	8.113	16.69	8.74	1.58
	38.39	29.08	67.88	0.00	0.0603	10.42	458.3	385.54	0.0591	451.7	8.131	16.72	8.77	1.58
	39.38	29.10	67.88	0.00	0.0603	10.42	458.6	385.86	0.0591	452.1	8.138	16.74	8.79	1.58
	40.39	29.12	67.86	0.00	0.0603	10.42	458.6	386.02	0.0592	453.5	8.162	16.79	8.84	1.58
	41.39	29.12	67.86	0.00	0.0603	10.42	458.3	385.78	0.0592	454.3	8.178	16.83	8.86	1.58
	42.39	29.10	67.86	0.00	0.0602	10.40	457.6	385.12	0.0590	452.2	8.139	16.74	8.79	1.58
	43.42	29.12	67.88	-0.00	0.0602	10.40	457.4	384.86	0.0589	450.0	8.099	16.66	8.72	1.58
	44.40	29.12	67.88	-0.00	0.0602	10.39	457.3	384.77	0.0588	449.0	8.081	16.62	8.69	1.58
	45.40	29.10	67.86	-0.00	0.0601	10.39	457.1	384.67	0.0586	447.3	8.052	16.57	8.63	1.58
	46.40	29.09	67.86	0.00	0.0601	10.38	456.9	384.54	0.0584	445.5	8.020	16.50	8.57	1.58
	47.39	29.08	67.88	0.00	0.0601	10.38	456.5	384.07	0.0583	444.3	7.997	16.45	8.53	1.58
	48.41	29.12	67.88	-0.00	0.0601	10.38	456.8	384.37	0.0584	444.8	8.006	16.47	8.55	1.58
	49.41	29.12	67.88	-0.00	0.0601	10.38	456.9	384.45	0.0584	445.2	8.013	16.48	8.56	1.58
	50.39	29.10	67.86	0.00	0.0601	10.38	456.8	384.50	0.0585	444.9	8.008	16.48	8.55	1.58
	51.40	29.10	67.88	0.00	0.0601	10.38	456.7	384.21	0.0583	444.1	7.994	16.44	8.53	1.58
	52.39	29.09	67.86	0.00	0.0600	10.37	456.2	383.91	0.0582	443.5	7.984	16.42	8.51	1.58
	53.38	29.10	67.86	0.00	0.0601	10.15	446.5	375.79	0.0584	438.0	7.885	16.22	8.32	1.58
	54.38	29.10	67.86	0.00	0.0602	10.39	457.3	384.92	0.0585	445.9	8.025	16.51	8.58	1.58
	55.38	29.11	67.89	0.00	0.0601	10.38	456.9	384.37	0.0584	445.0	8.010	16.47	8.56	1.58
	56.40	29.10	67.86	-0.00	0.0601	10.38	456.9	384.50	0.0584	445.1	8.011	16.48	8.56	1.58
	57.39	29.12	67.86	-0.00	0.0601	10.36	455.8	383.67	0.0583	443.1	7.976	16.41	8.49	1.59
	58.39	29.16	67.86	-0.00	0.0601	10.37	456.5	384.25	0.0585	445.6	8.021	16.50	8.58	1.58
	59.45	29.12	67.88	0.00	0.0601	10.37	456.5	384.07	0.0583	443.9	7.991	16.43	8.52	1.58
	60.39	29.16	67.86	0.00	0.0601	10.37	456.2	384.00	0.0583	444.3	7.997	16.45	8.53	1.59
	61.39	29.14	67.86	0.00	0.0600	10.36	455.6	383.52	0.0582	442.4	7.964	16.39	8.47	1.58
	62.40	29.14	67.86	-0.00	0.0600	10.35	455.4	383.29	0.0581	441.2	7.942	16.34	8.43	1.59
	63.38	29.18	67.86	0.00	0.0600	10.36	455.8	383.71	0.0581	442.7	7.969	16.40	8.48	1.59
	64.41	29.16	67.86	-0.00	0.0600	10.36	456.0	383.84	0.0582	443.7	7.986	16.43	8.51	1.59
	65.40	29.16	67.91	-0.00	0.0600	10.37	456.2	383.76	0.0582	443.2	7.978	16.41	8.50	1.59
	66.39	29.16	67.86	-0.00	0.0600	10.36	456.0	383.82	0.0582	442.5	7.966	16.39	8.48	1.59
	67.41	29.16	67.86	-0.00	0.0601	10.37	456.2	384.06	0.0584	444.1	7.993	16.45	8.53	1.59
	68.39	29.18	67.88	0.00	0.0601	10.38	456.7	384.34	0.0586	446.2	8.031	16.52	8.60	1.59
	69.41	29.17	67.86	-0.00	0.0602	10.39	457.1	384.84	0.0587	448.0	8.064	16.59	8.66	1.59
	70.40	29.16	67.86	-0.00	0.0602	10.40	457.7	385.23	0.0587	447.9	8.062	16.59	8.65	1.59
	71.39	29.13	67.88	0.00	0.0602	10.40	457.5	384.94	0.0585	446.5	8.036	16.53	8.61	1.59
	72.40	29.18	67.86	-0.00	0.0601	10.38	456.9	384.59	0.0587	446.9	8.044	16.55	8.62	1.59
	73.38	29.16	67.86	0.00	0.0600	10.37	456.3	384.11	0.0589	450.2	8.104	16.68	8.73	1.59
	74.40	29.18	67.86	-0.00	0.0600	10.35	455.5	383.46	0.0586	448.4	8.070	16.61	8.67	1.59
	75.40	29.18	67.88	0.00	0.0599	10.35	455.3	383.19	0.0585	448.2	8.068	16.60	8.67	1.59
	76.41	29.16	67.86	-0.00	0.0599	10.34	455.0	383.00	0.0583	445.4	8.018	16.50	8.57	1.59
	77.38	29.18	67.88	0.00	0.0599	10.33	454.7	382.61	0.0583	443.3	7.980	16.42	8.50	1.59
	78.39	29.16	67.88	0.00	0.0599	10.34	454.8	382.70	0.0583	443.9	7.990	16.44	8.52	1.59
	79.39	29.16	67.83	0.00	0.0599	10.34	455.0	383.14	0.0584	445.0	8.010	16.49	8.56	1.59
	80.40	29.18	67.86	-0.00	0.0600	10.35	455.4	383.37	0.0586	446.5	8.038	16.54	8.61	1.59
	81.39	29.16	67.86	0.00	0.0600	10.37	456.1	383.93	0.0586	447.1	8.048	16.56	8.63	1.59
	82.46	29.13	67.88	0.00	0.0601	10.38	456.9	384.44	0.0587	448.6	8.075	16.61	8.68	1.59
	83.40	29.14	67.88	-0.00	0.0601	10.38	456.7	384.33	0.0587	448.2	8.067	16.59	8.66	1.59
	84.40	29.16	67.88	-0.00	0.0601	10.38	456.5	384.16	0.0588	448.1	8.066	16.59	8.66	1.59
	85.38	29.16	67.86	-0.00	0.0600	10.36	456.0	383.83	0.0588	448.9	8.080	16.63	8.69	1.59
	86.38	29.18	67.86	0.00	0.0600	10.35	455.6	383.55	0.0587	448.4	8.072	16.61	8.67	1.59
	87.38	29.15	67.86	0.00	0.0600	10.36	455.9	383.72	0.0587	448.6	8.074	16.61	8.68	1.59
	88.39	29.18	67.86	-0.00	0.0601	10.37	456.3	384.16	0.0587	448.5	8.073	16.61	8.67	1.59
	89.37	29.18	67.88	0.00	0.0601	10.39	457.1	384.65	0.0588	449.4	8.088	16.64	8.70	1.59
	90.40	29.18	67.88	-0.00	0.0601	10.39	456.9	384.55	0.0590	449.2	8.085	16.63	8.70	1.59
	91.40	29.22	67.86	-0.00	0.0602	10.39	457.3	385.00	0.0590	451.2	8.121	16.71	8.76	1.59
	92.38	29.19	67.86	0.00	0.0602	10.39	457.3	385.01	0.0590	452.5	8.144	16.76	8.81	1.60
	93.40	29.20	67.86	-0.00	0.0602	10.40	457.5	385.12	0.0592	454.0	8.172	16.82	8.86	1.59
	94.40	29.20	67.81	-0.00	0.0602	10.39	457.1	385.13	0.0593	455.3	8.195	16.88	8.90	1.59
	95.38	29.20	67.86	0.00	0.0601	10.38	456.8	384.60	0.0593	454.8	8.186	16.85	8.88	1.59
	96.38	29.15	67.86	0.00	0.0601	10.37	456.4	384.16	0.0592	454.0	8.172	16.81	8.85	1.59
	97.39	29.17	67.86	0.00	0.0601	10.37	456.4	384.20	0.0592	453.7	8.167	16.81	8.85	1.60
	98.39	29.21	67.88	-0.00	0.0602	10.39	457.2	384.81	0.0593	455.0	8.191	16.85	8.89	1.60
	99.40	29.21	67.86	0.00	0.0602	10.39	457.1	384.89	0.0594	456.3	8.213	16.90	8.93	1.59
	100.39	29.20	67.86	0.00	0.0601	10.37	456.5	384.32	0.0593	455.0	8.190	16.86	8.89	1.59
	101.39	29.20	67.86	0.00	0.0600	10.37	456.1	383.97	0.0591	453.4	8.161	16.80	8.84	1.59
	102.40	29.18	67.86	-0.00	0.0600	10.36	455.9	383.75	0.0591	452.2	8.139	16.75	8.80	1.59
	103.38	29.19	67.88	-0.00	0.0601	10.37	456.3	384.03	0.0591	452.2	8.140	16.75	8.80	1.60
	104.40	29.20	67.86	-0.00	0.0601	10.38	456.9	384.69	0.0592	454.2	8.176	16.83	8.86	1.60
	105.38	29.22	67.86	0.00	0.0602	10.41	457.8	385.47	0.0595	456.0	8.208	16.89	8.92	1.60
	106.39	29.20	67.88	0.00	0.0601	10.40	457.4	384.92	0.0593	455.6	8.201	16.87	8.91	1.59
	107.41	29.20	67.86	0.00	0.0601	10.39	457.2	384.90	0.0593	455.4	8.198	16.87	8.90	1.59
	108.39	29.19	67.86	0.00	0.0601	10.37	456.4	384.27	0.0592	453.4	8.160	16.79	8.83	1.60
	109.47	29.18	67.86	0.00	0.0600	10.37	456.1	384.01	0.0590	452.3	8.141	16.75	8.80	1.60
	110.39	29.22	67.86	0.00	0.0600	10.36	455.9	383.82	0.0590	451.2	8.121	16.71	8.76	1.60
	111.39	29.21	67.89	0.00	0.0600	10.37	456.2	383.91	0.0592	453.2	8.158	16.78	8.83	1.60
	112.46	29.26	67.88	0.00	0.0601	10.38	456.6	384.38	0.0591	453.1	8.156	16.78	8.83	1.60
	113.38	29.23	67.90	0.00	0.0601	10.37	456.5	384.11	0.0592	452.9	8.153	16.77	8.82	1.60
	114.40	29.24	67.86	-0.00	0.0602	10.39	457.0	384.78	0.0593	454.1	8.174	16.83	8.86	1.60
	115.38	29.21	67.86	-0.00	0.0602	10.39	457.2	384.96	0.0595	456.6	8.219	16.91	8.94	1.60
	116.41	29.24	67.86	-0.00	0.0603	10.42	458.3	385.87	0.0596	458.8	8.258	17.00	9.01	1.60
	117.39	29.24	67.86	0.00	0.0603	10.42	458.6	386.11	0.0598	460.5	8.290	17.06	9.07	1.60
	118.39	29.20	67.86	0.00	0.0603	10.42	458.6	386.07	0.0598	460.5	8.289	17.06	9.07	1.60
	119.39	29.20	67.86	0.00	0.0603	10.42	458.6	386.09	0.0597	459.3	8.267	17.01	9.03	1.60
	120.40	29.21	67.88	-0.00	0.0603	10.42	458.7	386.03	0.0596	457.8	8.240	16.95	8.98	1.60
	121.39	29.19	67.86	-0.00	0.0602	10.41	457.8	385.42	0.0595	456.5	8.216	16.91	8.94	1.60
	122.38	29.17	67.88	0.00	0.0603	10.38	456.9	384.45	0.0592	452.0	8.136	16.74	8.79	1.60
	123.40	29.19	67.88	0.00	0.0602	10.38	456.9	384.48	0.0595	455.8	8.205	16.88	8.92	1.60
	124.38	29.20	67.86	-0.00	0.0602	10.36	455.7	383.62	0.0595	453.9	8.170	16.81	8.85	1.60
