Jul 27 2015 at 14:21:18
Frequency: 1.00Hz.
CO2
Zero:  Value:0.95  Date:18 Mar 2005	 at 07:22:33	
Span:  Value:1.00  Date:18 Mar 2005	 at 07:25:09	
H2O
Zero:  Value:0.71  Date:18 Mar 2005	 at 07:52:31	
Span:  Value:0.99  Date:18 Mar 2005	 at 11:44:01	
	Relative Time	Temperature	Pressure	Aux Input	CO2 Absorptance	CO2 mmol/m3	CO2 mg/m3	CO2 umol/mol	H2O Absorptance	H2O mmol/m3	H2O g/m3	H2O mmol/mol	H2O(°C)	Cooler Voltage
	0.03	30.52	67.86	0.00	0.0615	10.67	469.7	397.15	0.0557	416.3	7.494	15.49	7.65	1.59
	1.04	30.61	67.88	0.00	0.0614	10.67	469.4	396.90	0.0570	428.9	7.721	15.96	8.09	1.59
	2.06	30.61	67.83	-0.00	0.0614	10.67	469.4	397.21	0.0565	425.4	7.656	15.84	7.96	1.59
	3.04	30.63	67.86	0.00	0.0614	10.66	468.9	396.63	0.0562	421.4	7.586	15.69	7.83	1.59
	4.06	30.63	67.88	-0.00	0.0611	10.62	467.3	395.14	0.0561	421.6	7.589	15.69	7.84	1.59
	5.04	30.65	67.85	0.00	0.0613	10.64	468.3	396.20	0.0566	421.7	7.591	15.70	7.84	1.59
	6.04	30.70	67.85	0.00	0.0611	10.63	467.9	395.93	0.0561	421.6	7.590	15.70	7.84	1.59
	7.04	30.66	67.83	0.00	0.0612	10.64	468.1	396.18	0.0565	424.7	7.644	15.81	7.94	1.59
	8.03	30.59	67.86	0.00	0.0611	10.61	467.0	394.96	0.0567	427.2	7.690	15.90	8.03	1.59
	9.05	30.57	67.81	-0.00	0.0612	10.63	467.8	395.97	0.0574	433.2	7.797	16.13	8.23	1.59
	10.05	30.56	67.86	-0.00	0.0611	10.61	466.8	394.79	0.0568	427.7	7.699	15.92	8.04	1.59
	11.12	30.55	67.83	-0.00	0.0611	10.62	467.1	395.17	0.0574	431.0	7.758	16.04	8.15	1.59
	12.03	30.55	67.83	0.00	0.0611	10.63	467.6	395.57	0.0580	441.2	7.942	16.42	8.50	1.59
	13.03	30.57	67.85	0.00	0.0611	10.62	467.4	395.33	0.0578	437.3	7.871	16.27	8.37	1.59
	14.04	30.55	67.86	0.00	0.0611	10.60	466.6	394.55	0.0581	444.0	7.992	16.52	8.59	1.59
	15.05	30.53	67.86	-0.00	0.0612	10.61	467.0	394.91	0.0590	450.0	8.100	16.74	8.79	1.59
	16.05	30.49	67.83	-0.00	0.0611	10.61	466.7	394.77	0.0594	452.2	8.139	16.83	8.86	1.59
	17.04	30.50	67.86	0.00	0.0611	10.61	467.0	394.88	0.0603	464.2	8.356	17.27	9.25	1.59
	18.07	30.50	67.86	0.00	0.0610	10.59	465.9	393.94	0.0593	457.9	8.243	17.04	9.05	1.59
	19.03	30.54	67.88	0.00	0.0611	10.60	466.4	394.29	0.0609	468.0	8.425	17.41	9.37	1.59
	20.05	30.52	67.83	0.00	0.0611	10.59	466.1	394.31	0.0606	470.1	8.462	17.50	9.44	1.59
	21.05	30.53	67.85	0.00	0.0611	10.62	467.2	395.12	0.0611	480.3	8.645	17.87	9.76	1.59
	22.04	30.53	67.86	0.00	0.0611	10.58	465.4	393.58	0.0611	467.3	8.411	17.39	9.35	1.59
	23.06	30.60	67.86	-0.00	0.0610	10.60	466.4	394.50	0.0611	480.2	8.644	17.87	9.76	1.60
	24.04	30.58	67.86	-0.00	0.0610	10.58	465.6	393.79	0.0602	465.0	8.369	17.30	9.28	1.59
	25.05	30.53	67.88	-0.00	0.0610	10.59	466.1	394.01	0.0602	472.1	8.498	17.56	9.50	1.59
	26.10	30.49	67.86	0.00	0.0609	10.56	464.9	393.04	0.0583	449.1	8.083	16.71	8.76	1.59
	27.05	30.53	67.88	-0.00	0.0609	10.55	464.1	392.29	0.0584	442.3	7.961	16.45	8.53	1.59
	28.03	30.50	67.86	-0.00	0.0611	10.59	466.0	394.00	0.0608	467.6	8.417	17.40	9.36	1.59
	29.06	30.48	67.86	-0.00	0.0610	10.59	466.2	394.11	0.0597	463.9	8.349	17.25	9.24	1.60
	30.06	30.50	67.81	-0.00	0.0611	10.58	465.6	393.99	0.0600	461.7	8.310	17.19	9.17	1.59
	31.03	30.52	67.91	0.00	0.0612	10.63	467.6	395.08	0.0607	472.7	8.509	17.58	9.52	1.59
	32.04	30.52	67.83	0.00	0.0612	10.61	466.8	394.88	0.0605	466.0	8.387	17.34	9.31	1.59
	33.04	30.52	67.88	0.00	0.0614	10.65	468.8	396.24	0.0622	483.8	8.708	17.99	9.86	1.59
	34.04	30.53	67.83	0.00	0.0613	10.66	468.9	396.67	0.0617	482.9	8.693	17.98	9.84	1.59
	35.05	30.53	67.88	0.00	0.0610	10.60	466.2	394.12	0.0603	469.4	8.449	17.46	9.42	1.59
	36.04	30.53	67.86	0.00	0.0610	10.58	465.5	393.62	0.0597	459.9	8.278	17.11	9.11	1.59
	37.03	30.53	67.89	0.00	0.0609	10.56	464.7	392.80	0.0593	456.5	8.218	16.98	9.00	1.59
	38.03	30.55	67.86	-0.00	0.0610	10.58	465.5	393.67	0.0595	458.9	8.261	17.08	9.08	1.59
	39.05	30.57	67.88	-0.00	0.0612	10.61	467.0	394.82	0.0610	469.1	8.443	17.45	9.41	1.59
	40.05	30.55	67.86	0.00	0.0613	10.63	467.9	395.69	0.0613	477.2	8.590	17.76	9.66	1.60
	41.04	30.57	67.86	0.00	0.0610	10.60	466.3	394.36	0.0598	464.4	8.360	17.28	9.26	1.60
	42.06	30.57	67.86	-0.00	0.0612	10.62	467.5	395.35	0.0612	475.2	8.554	17.68	9.60	1.59
	43.06	30.60	67.86	-0.00	0.0611	10.61	466.8	394.87	0.0610	473.1	8.516	17.61	9.54	1.59
	44.04	30.61	67.83	0.00	0.0612	10.61	466.7	394.87	0.0617	474.6	8.543	17.67	9.59	1.59
	45.04	30.59	67.85	0.00	0.0613	10.62	467.4	395.32	0.0618	478.4	8.610	17.80	9.70	1.59
	46.05	30.64	67.88	0.00	0.0612	10.63	467.8	395.62	0.0620	486.6	8.759	18.11	9.96	1.60
	47.05	30.59	67.85	-0.00	0.0612	10.62	467.4	395.35	0.0618	484.1	8.714	18.02	9.88	1.60
	48.05	30.59	67.83	-0.00	0.0609	10.57	464.9	393.36	0.0599	463.2	8.338	17.25	9.22	1.59
	49.03	30.61	67.88	0.00	0.0609	10.54	463.8	392.16	0.0592	450.0	8.101	16.74	8.80	1.60
	50.05	30.66	67.86	0.00	0.0608	10.53	463.5	392.11	0.0586	449.6	8.092	16.73	8.78	1.59
	51.03	30.61	67.83	0.00	0.0607	10.52	462.8	391.59	0.0584	445.7	8.022	16.59	8.65	1.59
	52.06	30.61	67.85	-0.00	0.0608	10.52	462.9	391.59	0.0588	442.9	7.973	16.49	8.56	1.60
	53.04	30.59	67.86	-0.00	0.0610	10.59	466.0	394.17	0.0612	477.8	8.601	17.78	9.68	1.60
	54.05	30.63	67.81	-0.00	0.0610	10.59	466.1	394.54	0.0611	480.3	8.645	17.89	9.76	1.60
	55.04	30.63	67.86	-0.00	0.0609	10.55	464.0	392.50	0.0608	463.9	8.351	17.27	9.25	1.60
	56.04	30.61	67.81	0.00	0.0610	10.58	465.5	394.07	0.0614	481.5	8.666	17.93	9.80	1.60
	57.03	30.61	67.83	-0.00	0.0608	10.52	462.7	391.52	0.0597	457.3	8.231	17.02	9.03	1.60
	58.03	30.63	67.85	0.00	0.0607	10.52	462.7	391.41	0.0592	453.7	8.166	16.89	8.92	1.60
	59.05	30.63	67.83	0.00	0.0606	10.49	461.7	390.70	0.0589	452.4	8.143	16.84	8.87	1.60
	60.03	30.63	67.86	0.00	0.0606	10.49	461.7	390.57	0.0592	455.4	8.198	16.95	8.97	1.60
	61.04	30.63	67.81	0.00	0.0606	10.50	461.9	390.97	0.0597	456.7	8.220	17.01	9.01	1.60
	62.04	30.63	67.83	0.00	0.0611	10.59	466.1	394.42	0.0634	495.6	8.920	18.45	10.23	1.60
	63.04	30.67	67.86	0.00	0.0610	10.60	466.2	394.42	0.0631	499.8	8.997	18.60	10.36	1.60
	64.04	30.63	67.86	0.00	0.0609	10.58	465.6	393.85	0.0623	488.3	8.790	18.17	10.01	1.60
	65.04	30.63	67.86	0.00	0.0609	10.54	463.9	392.38	0.0622	481.3	8.663	17.91	9.79	1.60
	66.05	30.65	67.86	-0.00	0.0611	10.61	466.6	394.75	0.0637	500.9	9.017	18.65	10.39	1.60
	67.11	30.66	67.88	0.00	0.0608	10.55	464.2	392.59	0.0617	489.4	8.809	18.21	10.04	1.60
	68.03	30.65	67.83	0.00	0.0610	10.58	465.3	393.79	0.0626	490.8	8.834	18.27	10.09	1.60
	69.05	30.65	67.81	-0.00	0.0609	10.56	464.5	393.25	0.0620	487.8	8.781	18.17	10.00	1.60
	70.05	30.65	67.83	0.00	0.0608	10.53	463.5	392.22	0.0617	477.2	8.590	17.77	9.67	1.60
	71.04	30.63	67.85	0.00	0.0606	10.50	462.0	390.78	0.0602	464.5	8.361	17.29	9.27	1.60
	72.06	30.64	67.85	-0.00	0.0607	10.50	462.2	391.02	0.0604	467.0	8.406	17.38	9.35	1.60
	73.06	30.59	67.85	-0.00	0.0606	10.51	462.3	391.06	0.0604	468.3	8.430	17.43	9.38	1.60
	74.05	30.57	67.83	0.00	0.0609	10.55	464.0	392.56	0.0627	485.4	8.737	18.07	9.92	1.60
	75.05	30.62	67.88	-0.00	0.0611	10.59	466.0	394.05	0.0629	496.8	8.943	18.48	10.27	1.60
	76.05	30.62	67.83	0.00	0.0608	10.58	465.4	393.79	0.0619	495.0	8.910	18.43	10.21	1.60
	77.03	30.61	67.86	0.00	0.0612	10.63	467.6	395.46	0.0639	509.3	9.168	18.96	10.64	1.60
	78.05	30.63	67.88	-0.00	0.0610	10.55	464.4	392.67	0.0631	490.8	8.835	18.26	10.09	1.60
	79.05	30.61	67.83	-0.00	0.0612	10.59	466.1	394.40	0.0639	503.0	9.054	18.73	10.45	1.60
	80.04	30.59	67.81	-0.00	0.0610	10.58	465.5	394.01	0.0633	500.2	9.004	18.63	10.37	1.60
	81.06	30.61	67.81	-0.00	0.0611	10.59	465.7	394.21	0.0638	496.7	8.940	18.50	10.26	1.60
	82.04	30.59	67.88	0.00	0.0611	10.62	467.2	394.98	0.0642	508.3	9.149	18.91	10.61	1.60
	83.06	30.61	67.86	-0.00	0.0611	10.60	466.4	394.48	0.0641	509.3	9.167	18.95	10.64	1.60
	84.04	30.64	67.85	-0.00	0.0612	10.63	467.6	395.57	0.0647	511.9	9.215	19.06	10.72	1.60
	85.04	30.59	67.83	0.00	0.0611	10.62	467.2	395.29	0.0645	515.8	9.284	19.20	10.83	1.60
	86.05	30.61	67.86	0.00	0.0609	10.58	465.5	393.73	0.0637	509.8	9.176	18.97	10.65	1.60
	87.03	30.62	67.86	0.00	0.0610	10.57	465.0	393.31	0.0637	500.3	9.006	18.62	10.37	1.61
	88.05	30.59	67.88	0.00	0.0611	10.60	466.2	394.21	0.0649	513.0	9.234	19.09	10.75	1.60
	89.05	30.61	67.88	-0.00	0.0608	10.56	464.7	392.94	0.0634	504.8	9.086	18.78	10.50	1.60
	90.04	30.64	67.83	0.00	0.0609	10.55	464.1	392.71	0.0635	503.5	9.063	18.75	10.47	1.60
	91.04	30.64	67.86	0.00	0.0607	10.50	462.1	390.91	0.0620	484.1	8.713	18.02	9.88	1.60
	92.04	30.64	67.86	0.00	0.0608	10.53	463.2	391.82	0.0628	494.3	8.898	18.40	10.19	1.60
	93.06	30.59	67.83	-0.00	0.0608	10.53	463.4	392.08	0.0630	494.6	8.903	18.41	10.20	1.60
	94.04	30.57	67.89	0.00	0.0608	10.53	463.3	391.65	0.0635	498.9	8.981	18.56	10.33	1.60
	95.05	30.59	67.81	-0.00	0.0606	10.50	462.1	391.12	0.0622	489.6	8.812	18.23	10.05	1.60
	96.11	30.60	67.88	0.00	0.0608	10.53	463.2	391.65	0.0632	498.7	8.976	18.55	10.32	1.60
	97.05	30.57	67.85	-0.00	0.0610	10.58	465.4	393.64	0.0644	513.6	9.244	19.11	10.76	1.60
	98.12	30.64	67.86	-0.00	0.0609	10.55	464.0	392.53	0.0641	506.5	9.117	18.85	10.56	1.61
	99.03	30.59	67.83	0.00	0.0609	10.57	465.1	393.54	0.0638	508.7	9.156	18.94	10.62	1.61
	100.04	30.64	67.86	0.00	0.0610	10.57	465.2	393.53	0.0651	519.2	9.345	19.32	10.93	1.60
	101.03	30.64	67.86	0.00	0.0612	10.62	467.2	395.17	0.0661	530.3	9.546	19.74	11.25	1.60
	102.04	30.63	67.86	0.00	0.0610	10.60	466.6	394.67	0.0652	523.3	9.420	19.48	11.05	1.60
	103.06	30.64	67.85	0.00	0.0609	10.57	465.3	393.62	0.0643	514.6	9.263	19.15	10.80	1.60
	104.04	30.67	67.83	0.00	0.0609	10.54	463.9	392.63	0.0640	503.7	9.067	18.76	10.48	1.61
	105.05	30.67	67.83	0.00	0.0607	10.50	461.8	390.85	0.0632	499.4	8.989	18.60	10.35	1.61
	106.03	30.67	67.88	0.00	0.0607	10.52	462.8	391.38	0.0638	503.1	9.056	18.72	10.46	1.60
	107.05	30.67	67.83	-0.00	0.0608	10.53	463.5	392.25	0.0639	508.2	9.147	18.92	10.61	1.61
	108.11	30.68	67.86	0.00	0.0608	10.52	462.7	391.45	0.0637	501.2	9.022	18.66	10.40	1.60
	109.03	30.67	67.86	0.00	0.0607	10.51	462.5	391.31	0.0637	501.5	9.027	18.67	10.41	1.61
	110.06	30.65	67.83	0.00	0.0608	10.52	462.8	391.62	0.0638	501.9	9.033	18.69	10.42	1.61
	111.04	30.70	67.83	-0.00	0.0609	10.55	464.3	392.95	0.0645	510.2	9.183	19.00	10.67	1.61
	112.04	30.70	67.85	0.00	0.0610	10.57	465.3	393.67	0.0648	519.3	9.347	19.33	10.93	1.61
	113.02	30.69	67.83	0.00	0.0609	10.54	463.9	392.66	0.0641	510.2	9.184	19.00	10.67	1.61
	114.02	30.74	67.86	0.00	0.0607	10.52	462.9	391.69	0.0640	506.5	9.117	18.86	10.56	1.61
	115.05	30.73	67.85	-0.00	0.0607	10.51	462.6	391.49	0.0639	505.2	9.093	18.81	10.52	1.61
	116.03	30.75	67.83	0.00	0.0608	10.53	463.3	392.18	0.0644	510.3	9.185	19.01	10.67	1.61
	117.05	30.78	67.86	0.00	0.0608	10.54	463.7	392.45	0.0647	516.4	9.295	19.23	10.85	1.61
	118.03	30.75	67.86	0.00	0.0609	10.55	464.1	392.72	0.0646	513.1	9.235	19.10	10.76	1.61
	119.05	30.73	67.86	0.00	0.0609	10.55	464.4	392.94	0.0648	515.8	9.285	19.20	10.84	1.61
