Jul 27 2015 at 14:18:04
Frequency: 1.00Hz.
CO2
Zero:  Value:0.95  Date:18 Mar 2005	 at 07:22:33	
Span:  Value:1.00  Date:18 Mar 2005	 at 07:25:09	
H2O
Zero:  Value:0.71  Date:18 Mar 2005	 at 07:52:31	
Span:  Value:0.99  Date:18 Mar 2005	 at 11:44:01	
	Relative Time	Temperature	Pressure	Aux Input	CO2 Absorptance	CO2 mmol/m3	CO2 mg/m3	CO2 umol/mol	H2O Absorptance	H2O mmol/m3	H2O g/m3	H2O mmol/mol	H2O(°C)	Cooler Voltage
	0.02	30.48	67.88	-0.00	0.0615	10.67	469.7	396.97	0.0582	446.9	8.045	16.62	8.69	1.58
	1.00	30.47	67.86	0.00	0.0614	10.65	468.7	396.29	0.0584	448.0	8.064	16.67	8.72	1.58
	1.92	30.48	67.86	0.00	0.0614	10.66	468.9	396.43	0.0582	439.7	7.914	16.36	8.44	1.58
	3.00	30.50	67.85	0.00	0.0612	10.63	467.7	395.45	0.0584	446.8	8.043	16.62	8.68	1.58
	3.92	30.50	67.86	0.00	0.0612	10.62	467.4	395.24	0.0584	444.4	7.999	16.53	8.60	1.58
	4.93	30.47	67.86	0.00	0.0613	10.65	468.4	395.98	0.0585	447.2	8.050	16.63	8.70	1.58
	5.91	30.46	67.86	0.00	0.0611	10.61	466.9	394.72	0.0584	444.8	8.007	16.55	8.62	1.58
	6.94	30.45	67.86	-0.00	0.0612	10.62	467.2	394.99	0.0586	446.3	8.033	16.60	8.66	1.58
	7.92	30.42	67.86	-0.00	0.0611	10.61	466.7	394.51	0.0591	452.4	8.144	16.83	8.86	1.58
	8.94	30.40	67.88	-0.00	0.0610	10.59	466.0	393.75	0.0593	457.2	8.229	17.00	9.02	1.58
	9.94	30.40	67.90	0.00	0.0611	10.59	465.8	393.49	0.0594	456.1	8.210	16.95	8.98	1.57
	10.92	30.38	67.83	0.00	0.0609	10.56	464.5	392.79	0.0604	470.2	8.464	17.49	9.43	1.58
	12.01	30.36	67.86	-0.00	0.0607	10.52	463.0	391.34	0.0609	467.2	8.410	17.37	9.34	1.57
	12.92	30.41	67.86	0.00	0.0606	10.49	461.7	390.22	0.0612	476.0	8.569	17.70	9.62	1.58
	13.93	30.38	67.86	0.00	0.0607	10.50	462.2	390.61	0.0617	480.1	8.642	17.85	9.74	1.58
	14.93	30.38	67.90	0.00	0.0604	10.45	459.8	388.33	0.0638	503.5	9.063	18.71	10.46	1.58
	15.91	30.37	67.86	0.00	0.0605	10.47	460.9	389.50	0.0629	496.0	8.928	18.44	10.23	1.58
	16.93	30.42	67.88	0.00	0.0605	10.48	460.9	389.46	0.0631	497.3	8.952	18.49	10.27	1.58
	17.91	30.46	67.86	0.00	0.0605	10.46	460.1	389.01	0.0639	506.2	9.112	18.83	10.54	1.57
	18.92	30.49	67.86	0.00	0.0604	10.44	459.5	388.49	0.0634	502.0	9.035	18.67	10.42	1.58
	19.92	30.55	67.86	0.00	0.0604	10.45	459.7	388.72	0.0629	491.0	8.838	18.27	10.09	1.58
	20.92	30.57	67.86	0.00	0.0604	10.45	459.7	388.81	0.0637	506.1	9.110	18.83	10.54	1.58
	21.93	30.60	67.83	-0.00	0.0603	10.43	459.0	388.34	0.0638	506.2	9.112	18.85	10.55	1.57
	22.93	30.57	67.86	-0.00	0.0603	10.42	458.5	387.75	0.0631	497.0	8.945	18.49	10.27	1.57
	23.95	30.53	67.86	-0.00	0.0603	10.43	459.0	388.12	0.0637	497.7	8.958	18.52	10.29	1.57
	24.93	30.50	67.91	-0.00	0.0601	10.38	456.8	385.96	0.0641	506.7	9.121	18.84	10.56	1.58
	25.93	30.44	67.88	-0.00	0.0603	10.43	458.9	387.81	0.0641	512.8	9.230	19.07	10.73	1.58
	26.96	30.46	67.85	0.00	0.0603	10.42	458.6	387.71	0.0641	510.2	9.184	18.98	10.66	1.58
	27.91	30.42	67.85	0.00	0.0601	10.39	457.0	386.33	0.0634	502.0	9.036	18.67	10.41	1.58
	28.92	30.42	67.83	0.00	0.0604	10.42	458.6	387.75	0.0632	499.2	8.986	18.57	10.33	1.58
	29.91	30.42	67.85	0.00	0.0603	10.43	458.8	387.83	0.0630	496.2	8.931	18.46	10.24	1.58
	30.93	30.39	67.86	0.00	0.0604	10.44	459.2	388.12	0.0628	494.3	8.897	18.38	10.18	1.58
	31.92	30.40	67.88	0.00	0.0605	10.48	461.1	389.61	0.0622	484.6	8.722	18.01	9.88	1.58
	32.95	30.40	67.86	0.00	0.0605	10.46	460.4	389.16	0.0624	491.2	8.841	18.27	10.09	1.58
	33.93	30.40	67.86	0.00	0.0605	10.46	460.1	388.86	0.0626	491.0	8.839	18.26	10.08	1.58
	34.93	30.39	67.88	0.00	0.0603	10.43	458.8	387.63	0.0632	498.6	8.975	18.54	10.31	1.58
	35.93	30.40	67.86	0.00	0.0604	10.43	459.0	387.94	0.0634	502.7	9.048	18.69	10.43	1.58
	36.93	30.39	67.86	-0.00	0.0604	10.43	458.8	387.77	0.0636	503.1	9.055	18.71	10.44	1.58
	37.92	30.36	67.88	0.00	0.0603	10.43	459.0	387.78	0.0649	513.7	9.247	19.10	10.76	1.58
	38.92	30.41	67.86	0.00	0.0603	10.43	458.8	387.76	0.0649	518.8	9.338	19.29	10.91	1.58
	39.92	30.55	67.86	0.00	0.0603	10.43	458.8	388.00	0.0650	518.8	9.338	19.30	10.91	1.58
	40.92	30.55	67.86	0.00	0.0603	10.42	458.5	387.77	0.0631	492.8	8.871	18.34	10.14	1.58
	41.92	30.68	67.86	0.00	0.0604	10.42	458.5	387.90	0.0607	470.0	8.460	17.50	9.44	1.58
	42.92	30.71	67.88	0.00	0.0604	10.43	459.1	388.35	0.0621	483.1	8.696	17.98	9.85	1.58
	43.99	30.71	67.86	0.00	0.0604	10.44	459.4	388.74	0.0603	466.2	8.392	17.36	9.32	1.58
	44.91	30.74	67.88	0.00	0.0603	10.43	458.8	388.05	0.0613	475.3	8.555	17.69	9.61	1.58
	45.93	30.69	67.86	-0.00	0.0603	10.43	459.1	388.42	0.0637	500.5	9.008	18.63	10.38	1.58
	46.91	30.69	67.85	0.00	0.0602	10.39	457.3	386.89	0.0614	482.9	8.692	17.98	9.85	1.58
	47.94	30.70	67.86	-0.00	0.0603	10.42	458.4	387.84	0.0637	490.8	8.834	18.27	10.09	1.58
	48.92	30.65	67.90	0.00	0.0603	10.42	458.4	387.50	0.0644	509.9	9.178	18.97	10.66	1.58
	49.94	30.63	67.88	-0.00	0.0603	10.43	458.9	388.03	0.0644	514.2	9.256	19.13	10.78	1.58
	50.94	30.59	67.86	-0.00	0.0604	10.44	459.4	388.52	0.0634	501.2	9.022	18.65	10.40	1.58
	51.92	30.57	67.86	0.00	0.0603	10.44	459.5	388.62	0.0635	508.6	9.155	18.93	10.62	1.58
	52.93	30.52	67.86	0.00	0.0604	10.45	459.8	388.82	0.0646	511.0	9.198	19.01	10.68	1.58
	53.93	30.50	67.83	-0.00	0.0603	10.44	459.2	388.38	0.0641	505.9	9.107	18.83	10.53	1.58
	54.93	30.47	67.83	0.00	0.0603	10.43	458.9	388.15	0.0638	504.7	9.085	18.78	10.50	1.58
	55.99	30.46	67.86	0.00	0.0602	10.41	458.0	387.18	0.0640	505.1	9.091	18.79	10.51	1.58
	56.92	30.49	67.88	0.00	0.0602	10.41	458.1	387.22	0.0645	513.5	9.243	19.10	10.76	1.58
	57.92	30.47	67.88	0.00	0.0602	10.40	457.8	386.89	0.0647	515.8	9.284	19.18	10.82	1.58
	58.92	30.42	67.86	-0.00	0.0603	10.42	458.3	387.40	0.0643	511.0	9.198	19.01	10.68	1.58
	59.92	30.38	67.86	0.00	0.0602	10.41	457.9	387.00	0.0632	501.0	9.018	18.63	10.38	1.58
	60.90	30.42	67.86	0.00	0.0601	10.40	457.5	386.70	0.0631	500.3	9.005	18.61	10.36	1.58
	61.93	30.40	67.86	-0.00	0.0603	10.41	457.9	387.02	0.0642	509.0	9.163	18.93	10.62	1.58
	62.93	30.40	67.86	0.00	0.0602	10.41	457.9	387.01	0.0644	512.7	9.229	19.07	10.73	1.58
	63.95	30.42	67.88	-0.00	0.0602	10.40	457.5	386.59	0.0643	509.1	9.165	18.93	10.62	1.58
	64.93	30.44	67.86	0.00	0.0602	10.40	457.7	386.93	0.0635	504.1	9.073	18.75	10.48	1.58
	65.94	30.42	67.86	0.00	0.0602	10.40	457.5	386.71	0.0631	498.2	8.968	18.53	10.30	1.58
	66.94	30.44	67.83	-0.00	0.0603	10.41	458.2	387.47	0.0635	504.7	9.085	18.78	10.49	1.58
	68.00	30.45	67.86	0.00	0.0602	10.41	457.9	387.14	0.0639	505.1	9.092	18.79	10.51	1.58
	68.92	30.46	67.83	0.00	0.0602	10.40	457.7	387.12	0.0639	507.3	9.131	18.88	10.57	1.58
	69.92	30.46	67.88	0.00	0.0602	10.39	457.3	386.49	0.0637	502.3	9.041	18.68	10.42	1.58
	70.92	30.46	67.86	0.00	0.0602	10.40	457.7	386.98	0.0639	505.6	9.101	18.81	10.52	1.58
	71.92	30.44	67.88	0.00	0.0602	10.39	457.2	386.38	0.0641	506.8	9.122	18.84	10.56	1.58
	72.93	30.46	67.86	-0.00	0.0602	10.40	457.4	386.74	0.0648	515.2	9.273	19.16	10.80	1.58
	73.93	30.46	67.86	-0.00	0.0600	10.36	455.8	385.35	0.0644	510.5	9.189	18.99	10.67	1.58
	74.93	30.42	67.88	0.00	0.0601	10.37	456.3	385.62	0.0647	513.5	9.243	19.09	10.75	1.58
	75.91	30.44	67.89	0.00	0.0602	10.39	457.3	386.44	0.0651	522.9	9.413	19.44	11.03	1.58
	76.92	30.44	67.88	0.00	0.0602	10.39	457.1	386.27	0.0650	518.7	9.337	19.29	10.91	1.58
	77.91	30.44	67.86	0.00	0.0600	10.37	456.1	385.55	0.0643	513.6	9.246	19.11	10.76	1.59
	78.94	30.44	67.86	-0.00	0.0600	10.36	455.8	385.33	0.0644	513.0	9.233	19.08	10.74	1.58
	79.94	30.41	67.86	0.00	0.0602	10.37	456.3	385.74	0.0648	512.2	9.220	19.05	10.71	1.58
	80.92	30.40	67.86	0.00	0.0600	10.37	456.2	385.62	0.0641	513.0	9.233	19.08	10.74	1.58
	81.93	30.40	67.88	0.00	0.0600	10.36	455.9	385.19	0.0646	514.5	9.262	19.13	10.78	1.58
	83.01	30.35	67.88	0.00	0.0601	10.37	456.4	385.62	0.0649	516.5	9.296	19.20	10.84	1.58
	83.94	30.38	67.88	-0.00	0.0602	10.39	457.1	386.21	0.0648	513.9	9.251	19.11	10.76	1.59
	84.99	30.33	67.86	0.00	0.0601	10.38	456.6	385.88	0.0648	518.7	9.337	19.29	10.90	1.58
	85.93	30.32	67.86	0.00	0.0600	10.37	456.4	385.70	0.0641	505.9	9.107	18.81	10.52	1.58
	86.92	30.33	67.86	-0.00	0.0599	10.35	455.3	384.72	0.0638	505.5	9.098	18.79	10.51	1.58
	87.92	30.31	67.86	0.00	0.0600	10.35	455.6	384.96	0.0638	506.0	9.108	18.81	10.53	1.58
	88.94	30.28	67.86	-0.00	0.0602	10.40	457.5	386.53	0.0635	498.8	8.978	18.54	10.31	1.58
	89.94	30.26	67.86	-0.00	0.0601	10.38	456.6	385.79	0.0638	503.0	9.055	18.70	10.44	1.59
	90.93	30.23	67.85	-0.00	0.0600	10.38	456.6	385.78	0.0631	508.3	9.150	18.90	10.59	1.58
