Jul 27 2015 at 14:46:52
Frequency: 1.00Hz.
CO2
Zero:  Value:0.95  Date:18 Mar 2005	 at 07:22:33	
Span:  Value:1.00  Date:18 Mar 2005	 at 07:25:09	
H2O
Zero:  Value:0.71  Date:18 Mar 2005	 at 07:52:31	
Span:  Value:0.99  Date:18 Mar 2005	 at 11:44:01	
	Relative Time	Temperature	Pressure	Aux Input	CO2 Absorptance	CO2 mmol/m3	CO2 mg/m3	CO2 umol/mol	H2O Absorptance	H2O mmol/m3	H2O g/m3	H2O mmol/mol	H2O(°C)	Cooler Voltage
	0.27	30.16	67.83	-0.00	0.0609	10.57	464.9	392.79	0.0567	428.2	7.708	15.92	8.04	1.53
	1.17	30.14	67.83	0.00	0.0611	10.60	466.4	394.03	0.0571	431.2	7.762	16.03	8.14	1.53
	2.20	30.14	67.83	-0.00	0.0610	10.59	465.8	393.53	0.0577	437.3	7.872	16.26	8.35	1.52
	3.17	30.14	67.81	0.00	0.0609	10.56	464.8	392.83	0.0581	437.8	7.881	16.28	8.37	1.52
	4.18	30.14	67.84	-0.00	0.0609	10.55	464.2	392.11	0.0579	437.4	7.874	16.26	8.35	1.53
	5.18	30.14	67.83	-0.00	0.0609	10.56	464.5	392.43	0.0578	439.4	7.908	16.33	8.42	1.53
	6.18	30.14	67.81	0.00	0.0608	10.54	463.8	392.00	0.0579	439.1	7.905	16.33	8.41	1.52
	7.18	30.10	67.81	0.00	0.0608	10.53	463.5	391.71	0.0577	438.4	7.891	16.30	8.38	1.52
	8.18	30.14	67.81	0.00	0.0606	10.49	461.6	390.13	0.0582	443.4	7.981	16.49	8.55	1.52
	9.19	30.12	67.81	0.00	0.0604	10.45	460.0	388.73	0.0595	455.6	8.200	16.94	8.95	1.52
	10.19	30.10	67.83	0.00	0.0602	10.37	456.3	385.42	0.0612	491.2	8.841	18.26	10.07	1.53
	11.20	30.08	67.75	-0.00	0.0600	10.34	455.1	384.88	0.0635	501.6	9.029	18.67	10.39	1.53
	12.18	30.10	67.83	0.00	0.0603	10.41	457.9	386.83	0.0613	480.4	8.648	17.86	9.74	1.53
	13.20	30.11	67.83	-0.00	0.0600	10.36	456.0	385.25	0.0635	501.4	9.025	18.64	10.38	1.53
	14.18	30.08	67.81	-0.00	0.0598	10.30	453.0	382.82	0.0649	518.2	9.328	19.27	10.87	1.53
	15.20	30.13	67.85	-0.00	0.0600	10.36	456.0	385.11	0.0624	487.9	8.782	18.13	9.97	1.53
	16.18	30.08	67.81	-0.00	0.0598	10.30	453.3	383.06	0.0638	505.7	9.102	18.80	10.51	1.53
	17.19	30.08	67.83	-0.00	0.0598	10.31	453.5	383.05	0.0646	512.5	9.225	19.05	10.71	1.53
	18.20	30.15	67.85	-0.00	0.0599	10.32	454.1	383.54	0.0637	511.7	9.211	19.02	10.69	1.53
	19.17	30.12	67.81	0.00	0.0600	10.36	455.7	385.14	0.0623	491.5	8.847	18.28	10.08	1.53
	20.19	30.06	67.81	0.00	0.0603	10.42	458.5	387.43	0.0592	450.1	8.102	16.73	8.77	1.53
	21.18	30.08	67.83	0.00	0.0603	10.44	459.2	387.84	0.0596	452.9	8.151	16.83	8.86	1.53
	22.20	30.11	67.83	-0.00	0.0603	10.42	458.5	387.32	0.0587	453.0	8.154	16.84	8.87	1.53
	23.18	30.08	67.86	0.00	0.0602	10.42	458.6	387.19	0.0584	445.0	8.010	16.53	8.60	1.53
	24.18	30.04	67.83	0.00	0.0601	10.37	456.5	385.51	0.0619	486.1	8.749	18.06	9.91	1.53
	25.18	30.07	67.85	0.00	0.0599	10.35	455.5	384.58	0.0659	530.1	9.541	19.69	11.21	1.53
	26.18	30.06	67.83	0.00	0.0598	10.32	454.1	383.59	0.0698	559.4	10.069	20.79	12.03	1.53
	27.19	30.04	67.83	-0.00	0.0598	10.32	454.0	383.47	0.0681	547.0	9.846	20.33	11.69	1.53
	28.17	30.05	67.83	0.00	0.0598	10.32	454.0	383.41	0.0661	531.7	9.571	19.76	11.26	1.53
	29.19	30.04	67.81	-0.00	0.0597	10.29	452.8	382.54	0.0712	585.1	10.532	21.75	12.71	1.53
	30.25	30.04	67.83	0.00	0.0596	10.27	451.8	381.59	0.0723	609.0	10.963	22.63	13.32	1.53
	31.17	30.06	67.81	0.00	0.0597	10.29	452.7	382.50	0.0691	574.6	10.343	21.36	12.44	1.53
	32.20	30.05	67.83	0.00	0.0598	10.31	453.7	383.23	0.0692	565.6	10.181	21.02	12.20	1.53
	33.18	30.06	67.81	0.00	0.0597	10.30	453.2	382.95	0.0672	544.6	9.803	20.25	11.62	1.53
	34.18	30.06	67.81	0.00	0.0596	10.28	452.2	382.07	0.0692	571.2	10.281	21.24	12.34	1.53
	35.26	30.06	67.83	0.00	0.0597	10.30	453.1	382.70	0.0677	555.2	9.994	20.63	11.91	1.53
	36.26	30.08	67.85	0.00	0.0597	10.29	452.7	382.25	0.0659	531.5	9.566	19.75	11.25	1.53
	37.17	30.07	67.81	0.00	0.0598	10.30	453.4	383.11	0.0668	536.5	9.656	19.94	11.39	1.53
	38.17	30.03	67.83	0.00	0.0597	10.28	452.1	381.86	0.0685	557.8	10.040	20.73	11.98	1.53
	39.19	30.05	67.83	-0.00	0.0595	10.26	451.5	381.35	0.0714	581.7	10.471	21.62	12.62	1.53
	40.19	30.02	67.83	-0.00	0.0595	10.24	450.7	380.57	0.0712	594.0	10.691	22.07	12.94	1.53
	41.18	30.01	67.81	-0.00	0.0594	10.22	449.7	379.93	0.0711	596.7	10.740	22.18	13.01	1.53
	42.17	30.03	67.81	0.00	0.0597	10.28	452.3	382.10	0.0651	523.4	9.422	19.46	11.02	1.53
	43.18	30.05	67.81	0.00	0.0597	10.27	451.8	381.75	0.0661	538.9	9.700	20.03	11.46	1.53
	44.20	30.09	67.85	-0.00	0.0596	10.27	451.8	381.56	0.0689	563.9	10.150	20.95	12.15	1.53
	45.19	30.06	67.78	0.00	0.0594	10.23	450.1	380.45	0.0727	612.9	11.032	22.80	13.42	1.53
	46.18	30.05	67.85	0.00	0.0595	10.24	450.5	380.33	0.0719	607.1	10.928	22.55	13.28	1.53
	47.17	30.07	67.83	0.00	0.0594	10.23	450.0	380.13	0.0703	592.4	10.664	22.02	12.90	1.53
	48.19	30.06	67.78	0.00	0.0594	10.23	450.1	380.44	0.0709	583.7	10.507	21.71	12.68	1.53
	49.17	30.06	67.86	0.00	0.0596	10.26	451.5	381.19	0.0696	574.8	10.346	21.35	12.44	1.53
	50.19	30.08	67.83	-0.00	0.0596	10.26	451.5	381.35	0.0684	562.2	10.120	20.90	12.11	1.53
	51.17	30.06	67.81	0.00	0.0596	10.26	451.5	381.49	0.0678	546.9	9.844	20.33	11.68	1.53
	52.18	30.08	67.86	0.00	0.0594	10.23	450.0	380.00	0.0709	596.3	10.733	22.15	13.00	1.53
	53.18	30.05	67.83	-0.00	0.0594	10.23	450.0	380.08	0.0685	560.0	10.080	20.81	12.04	1.53
	54.18	30.05	67.83	0.00	0.0593	10.19	448.6	378.83	0.0696	578.9	10.420	21.51	12.55	1.53
	55.16	30.05	67.83	0.00	0.0594	10.21	449.4	379.52	0.0679	553.6	9.964	20.57	11.87	1.53
	56.18	30.03	67.83	0.00	0.0594	10.22	449.6	379.73	0.0682	558.2	10.047	20.74	11.99	1.53
	57.17	30.05	67.83	-0.00	0.0594	10.22	449.9	379.98	0.0685	559.7	10.074	20.80	12.04	1.53
	58.19	30.05	67.81	-0.00	0.0594	10.23	450.1	380.25	0.0694	572.1	10.298	21.27	12.37	1.53
	59.19	30.05	67.78	0.00	0.0594	10.21	449.3	379.77	0.0687	562.4	10.123	20.92	12.11	1.53
	60.19	30.06	67.81	0.00	0.0594	10.22	449.5	379.83	0.0690	566.0	10.189	21.04	12.21	1.53
	61.18	30.06	67.83	0.00	0.0594	10.22	449.6	379.80	0.0691	569.0	10.242	21.15	12.29	1.53
	62.20	30.07	67.83	-0.00	0.0594	10.22	449.8	379.98	0.0688	565.3	10.176	21.01	12.19	1.53
	63.18	30.07	67.86	0.00	0.0593	10.21	449.3	379.35	0.0697	573.6	10.324	21.31	12.41	1.53
	64.26	30.05	67.84	0.00	0.0594	10.23	450.1	380.11	0.0699	574.9	10.348	21.36	12.44	1.53
	65.19	30.02	67.83	-0.00	0.0594	10.21	449.4	379.53	0.0697	575.2	10.353	21.37	12.45	1.53
	66.25	30.03	67.81	0.00	0.0594	10.23	449.9	380.10	0.0707	587.3	10.571	21.83	12.77	1.53
	67.19	30.03	67.83	-0.00	0.0593	10.20	448.8	379.06	0.0696	576.5	10.376	21.42	12.48	1.53
	68.19	30.03	67.81	0.00	0.0593	10.20	448.9	379.19	0.0693	572.9	10.313	21.30	12.39	1.53
	69.17	30.01	67.83	0.00	0.0594	10.21	449.2	379.31	0.0693	569.0	10.243	21.14	12.28	1.53
	70.20	30.03	67.81	-0.00	0.0593	10.20	448.9	379.25	0.0703	581.8	10.472	21.63	12.62	1.53
	71.18	30.00	67.81	-0.00	0.0593	10.20	448.6	378.96	0.0712	592.0	10.657	22.01	12.89	1.53
	72.20	30.02	67.83	0.00	0.0592	10.18	447.7	378.12	0.0720	607.1	10.928	22.56	13.27	1.53
	73.18	30.05	67.81	-0.00	0.0592	10.19	448.2	378.70	0.0725	603.9	10.869	22.45	13.19	1.53
	74.19	30.03	67.81	-0.00	0.0591	10.17	447.4	377.97	0.0733	620.9	11.176	23.08	13.62	1.53
	75.24	30.06	67.85	0.00	0.0592	10.18	447.7	378.06	0.0728	616.2	11.091	22.89	13.50	1.53
	76.17	30.07	67.83	0.00	0.0592	10.17	447.7	378.14	0.0722	606.3	10.914	22.53	13.26	1.53
	77.17	30.02	67.83	0.00	0.0591	10.15	446.6	377.13	0.0720	602.8	10.851	22.40	13.16	1.53
	78.20	30.05	67.86	-0.00	0.0591	10.16	447.0	377.40	0.0731	614.0	11.052	22.81	13.45	1.53
	79.20	30.08	67.85	-0.00	0.0591	10.16	446.9	377.36	0.0732	615.3	11.075	22.86	13.48	1.53
	80.19	30.08	67.86	-0.00	0.0592	10.18	447.8	378.09	0.0725	613.2	11.037	22.78	13.43	1.54
	81.20	30.15	67.83	-0.00	0.0591	10.15	446.6	377.36	0.0721	603.4	10.861	22.43	13.19	1.54
