Jul 28 2015 at 12:42:38
Frequency: 1.00Hz.
CO2
Zero:  Value:0.95  Date:18 Mar 2005	 at 07:22:33	
Span:  Value:1.00  Date:18 Mar 2005	 at 07:25:09	
H2O
Zero:  Value:0.71  Date:18 Mar 2005	 at 07:52:31	
Span:  Value:0.99  Date:18 Mar 2005	 at 11:44:01	
	Relative Time	Temperature	Pressure	Aux Input	CO2 Absorptance	CO2 mmol/m3	CO2 mg/m3	CO2 umol/mol	H2O Absorptance	H2O mmol/m3	H2O g/m3	H2O mmol/mol	H2O(°C)	Cooler Voltage
	0.27	29.85	67.68	-0.00	0.0624	10.90	479.6	405.76	0.0431	292.4	5.263	10.88	2.54	1.60
	1.25	29.85	67.68	0.00	0.0623	10.87	478.2	404.54	0.0438	299.5	5.391	11.15	2.88	1.60
	2.28	29.90	67.70	-0.00	0.0622	10.86	477.7	404.06	0.0434	294.6	5.304	10.97	2.65	1.60
	3.26	29.90	67.68	-0.00	0.0623	10.88	478.6	404.92	0.0434	294.2	5.295	10.95	2.63	1.60
	4.28	29.89	67.68	-0.00	0.0622	10.85	477.2	403.77	0.0442	307.3	5.531	11.44	3.24	1.60
	5.27	29.87	67.70	-0.00	0.0620	10.82	476.1	402.62	0.0438	299.1	5.383	11.13	2.86	1.60
	6.29	29.85	67.70	-0.00	0.0621	10.83	476.5	402.98	0.0460	317.8	5.721	11.83	3.72	1.60
	7.27	29.85	67.70	-0.00	0.0621	10.83	476.5	402.94	0.0465	323.9	5.831	12.05	3.99	1.60
	8.27	29.83	67.70	0.00	0.0620	10.80	475.3	401.93	0.0466	325.7	5.863	12.12	4.07	1.60
	9.28	29.86	67.65	-0.00	0.0621	10.84	476.8	403.48	0.0461	320.3	5.766	11.93	3.83	1.60
	10.25	29.87	67.70	0.00	0.0621	10.84	476.9	403.31	0.0458	315.6	5.682	11.75	3.62	1.60
	11.26	29.92	67.70	0.00	0.0619	10.81	475.7	402.38	0.0460	319.8	5.756	11.90	3.81	1.60
	12.26	29.85	67.70	0.00	0.0619	10.80	475.1	401.79	0.0456	317.7	5.719	11.82	3.71	1.60
	13.26	29.85	67.68	0.00	0.0618	10.76	473.4	400.50	0.0453	313.4	5.641	11.66	3.52	1.60
	14.26	29.85	67.72	0.00	0.0621	10.82	476.1	402.49	0.0459	319.0	5.743	11.87	3.77	1.60
	15.26	29.85	67.70	0.00	0.0620	10.82	476.1	402.66	0.0435	307.0	5.525	11.42	3.23	1.60
	16.26	29.83	67.70	0.00	0.0621	10.82	475.9	402.44	0.0438	296.3	5.333	11.02	2.72	1.60
	17.27	29.81	67.70	-0.00	0.0620	10.81	475.7	402.28	0.0459	314.6	5.663	11.70	3.57	1.60
	18.27	29.88	67.68	-0.00	0.0620	10.82	476.1	402.80	0.0457	317.5	5.715	11.82	3.70	1.60
	19.28	29.89	67.70	-0.00	0.0619	10.80	475.3	401.97	0.0457	317.9	5.723	11.83	3.73	1.60
	20.27	29.91	67.72	0.00	0.0618	10.78	474.2	400.94	0.0457	317.2	5.710	11.80	3.70	1.60
	21.28	29.89	67.68	-0.00	0.0618	10.76	473.6	400.73	0.0459	316.5	5.697	11.78	3.66	1.60
	22.26	29.91	67.70	0.00	0.0619	10.79	474.7	401.54	0.0460	321.4	5.786	11.96	3.88	1.60
	23.28	29.91	67.70	-0.00	0.0619	10.79	474.8	401.57	0.0465	322.8	5.811	12.01	3.94	1.60
	24.26	29.91	67.70	0.00	0.0616	10.75	472.9	400.01	0.0462	323.8	5.828	12.05	3.99	1.60
	25.27	29.91	67.70	-0.00	0.0616	10.72	471.7	398.94	0.0462	321.9	5.795	11.98	3.90	1.60
	26.25	29.93	67.72	0.00	0.0617	10.74	472.6	399.65	0.0467	326.6	5.879	12.15	4.11	1.60
	27.25	29.95	67.72	0.00	0.0616	10.73	472.3	399.44	0.0465	325.2	5.853	12.10	4.05	1.60
	28.35	29.93	67.70	0.00	0.0616	10.72	471.6	398.91	0.0469	326.4	5.876	12.15	4.10	1.60
	29.27	29.95	67.72	0.00	0.0617	10.77	473.8	400.67	0.0471	331.7	5.970	12.34	4.33	1.60
	30.36	29.93	67.70	-0.00	0.0617	10.73	472.1	399.37	0.0469	326.6	5.879	12.16	4.11	1.60
	31.26	29.91	67.70	0.00	0.0616	10.73	472.2	399.42	0.0469	328.9	5.920	12.24	4.21	1.60
	32.28	29.93	67.70	-0.00	0.0615	10.69	470.6	398.05	0.0469	329.3	5.927	12.26	4.23	1.60
	33.27	29.95	67.70	-0.00	0.0614	10.65	468.6	396.45	0.0472	329.1	5.924	12.25	4.22	1.60
	34.26	29.94	67.70	0.00	0.0615	10.67	469.6	397.24	0.0470	329.9	5.937	12.28	4.25	1.60
	35.26	29.95	67.72	-0.00	0.0616	10.73	472.1	399.27	0.0478	339.8	6.116	12.64	4.68	1.60
	36.27	29.93	67.70	0.00	0.0616	10.72	471.6	398.93	0.0483	340.8	6.135	12.69	4.72	1.60
	37.27	29.89	67.68	0.00	0.0615	10.71	471.1	398.55	0.0482	339.9	6.118	12.65	4.68	1.60
	38.27	29.85	67.68	0.00	0.0616	10.72	471.5	398.87	0.0490	347.0	6.246	12.92	4.97	1.60
	39.27	29.85	67.70	0.00	0.0615	10.69	470.5	397.87	0.0485	344.7	6.204	12.83	4.88	1.60
	40.26	29.85	67.68	-0.00	0.0615	10.70	470.9	398.38	0.0494	348.4	6.271	12.97	5.03	1.60
	41.26	29.85	67.70	0.00	0.0616	10.71	471.4	398.68	0.0492	350.3	6.305	13.03	5.11	1.60
	42.32	29.85	67.70	0.00	0.0614	10.70	470.8	398.15	0.0491	352.9	6.352	13.13	5.21	1.60
	43.29	29.85	67.70	-0.00	0.0614	10.67	469.6	397.16	0.0496	353.3	6.360	13.15	5.23	1.60
	44.27	29.90	67.70	0.00	0.0614	10.69	470.3	397.81	0.0501	360.4	6.487	13.41	5.52	1.60
	45.26	29.88	67.70	0.00	0.0614	10.68	470.0	397.47	0.0503	360.3	6.485	13.41	5.51	1.60
	46.27	29.81	67.73	-0.00	0.0613	10.67	469.3	396.71	0.0494	353.8	6.368	13.16	5.25	1.60
	47.25	29.85	67.70	0.00	0.0615	10.69	470.3	397.71	0.0507	364.8	6.566	13.57	5.69	1.60
	48.27	29.86	67.70	0.00	0.0614	10.68	470.1	397.54	0.0501	360.8	6.495	13.43	5.53	1.60
	49.25	29.89	67.70	0.00	0.0614	10.67	469.6	397.19	0.0504	363.1	6.535	13.51	5.63	1.60
	50.28	29.83	67.72	-0.00	0.0614	10.67	469.5	396.90	0.0505	364.4	6.560	13.55	5.68	1.60
	51.26	29.83	67.72	0.00	0.0614	10.68	469.9	397.23	0.0510	368.6	6.634	13.71	5.84	1.60
	52.26	29.85	67.70	0.00	0.0614	10.67	469.6	397.14	0.0510	367.6	6.617	13.68	5.80	1.60
	53.26	29.87	67.68	0.00	0.0614	10.67	469.6	397.30	0.0513	371.0	6.678	13.81	5.94	1.60
	54.29	29.89	67.70	-0.00	0.0613	10.66	469.0	396.63	0.0511	370.9	6.675	13.80	5.93	1.60
	55.27	29.93	67.70	0.00	0.0613	10.67	469.4	397.03	0.0519	378.3	6.810	14.08	6.22	1.60
	56.25	29.91	67.70	0.00	0.0612	10.63	467.8	395.66	0.0515	370.3	6.666	13.78	5.91	1.60
	57.28	29.97	67.72	-0.00	0.0613	10.65	468.5	396.19	0.0526	382.9	6.892	14.25	6.40	1.60
	58.27	29.93	67.70	-0.00	0.0613	10.65	468.5	396.30	0.0533	389.8	7.016	14.51	6.65	1.60
	59.27	29.89	67.70	0.00	0.0611	10.62	467.4	395.32	0.0527	384.1	6.913	14.29	6.44	1.60
	60.26	29.88	67.70	0.00	0.0612	10.63	467.6	395.45	0.0527	386.6	6.959	14.39	6.53	1.60
	61.28	29.91	67.70	-0.00	0.0613	10.66	469.1	396.76	0.0531	389.4	7.008	14.49	6.64	1.60
	62.34	29.90	67.68	-0.00	0.0612	10.65	468.6	396.48	0.0527	387.1	6.968	14.41	6.55	1.60
	63.24	29.95	67.68	0.00	0.0612	10.63	467.6	395.72	0.0527	384.7	6.924	14.32	6.46	1.60
	64.26	29.96	67.70	0.00	0.0609	10.57	465.1	393.44	0.0523	380.8	6.854	14.17	6.32	1.60
	65.27	30.03	67.73	-0.00	0.0610	10.59	465.9	394.05	0.0530	389.4	7.008	14.49	6.64	1.60
	66.27	30.03	67.68	0.00	0.0611	10.61	466.7	395.01	0.0535	393.2	7.077	14.64	6.79	1.60
	67.33	30.03	67.70	0.00	0.0611	10.60	466.2	394.50	0.0535	389.3	7.007	14.49	6.64	1.60
	68.27	30.07	67.70	0.00	0.0612	10.63	467.7	395.80	0.0539	398.9	7.180	14.85	7.00	1.60
	69.27	30.05	67.70	-0.00	0.0610	10.60	466.4	394.71	0.0536	394.5	7.101	14.69	6.84	1.60
	70.26	30.06	67.70	0.00	0.0610	10.57	465.2	393.64	0.0538	393.9	7.091	14.67	6.82	1.60
	71.26	30.08	67.70	0.00	0.0609	10.58	465.7	394.10	0.0539	398.2	7.167	14.83	6.97	1.60
	72.28	30.03	67.70	-0.00	0.0610	10.58	465.5	393.88	0.0537	396.4	7.135	14.76	6.90	1.60
	73.26	30.03	67.68	0.00	0.0609	10.59	465.9	394.40	0.0537	397.5	7.155	14.80	6.94	1.60
	74.33	30.03	67.70	0.00	0.0610	10.59	466.1	394.37	0.0543	400.9	7.216	14.92	7.07	1.60
	75.25	30.00	67.70	0.00	0.0610	10.58	465.7	393.98	0.0544	403.7	7.266	15.03	7.17	1.60
	76.27	30.02	67.70	0.00	0.0611	10.59	466.0	394.32	0.0552	409.6	7.373	15.25	7.38	1.60
	77.25	29.98	67.70	0.00	0.0609	10.57	465.3	393.62	0.0552	410.8	7.395	15.29	7.42	1.60
	78.25	29.99	67.72	0.00	0.0610	10.58	465.6	393.76	0.0553	410.4	7.387	15.27	7.41	1.60
	79.25	30.01	67.70	0.00	0.0610	10.59	465.8	394.10	0.0558	418.5	7.533	15.58	7.70	1.60
	80.25	30.00	67.68	0.00	0.0609	10.55	464.4	393.05	0.0553	413.3	7.439	15.39	7.51	1.60
	81.26	30.05	67.70	0.00	0.0610	10.57	464.9	393.43	0.0558	415.5	7.480	15.47	7.59	1.60
	82.26	30.05	67.70	0.00	0.0610	10.58	465.5	393.91	0.0559	419.7	7.554	15.63	7.74	1.60
	83.27	30.05	67.68	-0.00	0.0608	10.55	464.0	392.80	0.0557	414.2	7.456	15.43	7.55	1.60
	84.26	30.06	67.70	0.00	0.0609	10.56	464.8	393.34	0.0558	418.4	7.532	15.58	7.70	1.60
	85.27	30.06	67.72	0.00	0.0610	10.58	465.5	393.78	0.0568	428.6	7.715	15.95	8.05	1.60
	86.27	30.07	67.70	0.00	0.0608	10.55	464.3	392.89	0.0564	424.4	7.639	15.80	7.91	1.60
	87.27	30.10	67.70	0.00	0.0608	10.55	464.2	392.91	0.0566	426.0	7.668	15.86	7.96	1.60
	88.33	30.06	67.72	0.00	0.0608	10.55	464.2	392.72	0.0564	426.6	7.679	15.88	7.98	1.60
	89.26	30.06	67.70	0.00	0.0608	10.54	464.0	392.62	0.0567	428.0	7.704	15.94	8.03	1.60
	90.26	30.05	67.70	0.00	0.0608	10.55	464.1	392.75	0.0568	429.0	7.723	15.97	8.06	1.60
	91.26	30.09	67.70	0.00	0.0607	10.52	462.9	391.79	0.0563	423.7	7.627	15.78	7.88	1.60
	92.26	30.06	67.70	0.00	0.0608	10.55	464.1	392.72	0.0566	427.8	7.700	15.93	8.02	1.60
	93.24	30.07	67.70	0.00	0.0608	10.54	463.7	392.44	0.0568	428.6	7.715	15.96	8.05	1.60
	94.27	30.06	67.70	0.00	0.0606	10.52	462.7	391.57	0.0568	428.7	7.717	15.96	8.05	1.60
	95.27	30.03	67.68	0.00	0.0608	10.53	463.2	392.08	0.0571	430.4	7.747	16.03	8.11	1.60
	96.27	30.01	67.70	0.00	0.0606	10.50	462.2	391.07	0.0568	428.4	7.711	15.95	8.04	1.60
	97.27	30.05	67.70	0.00	0.0607	10.51	462.5	391.39	0.0569	428.7	7.716	15.96	8.05	1.60
	98.27	30.01	67.70	0.00	0.0607	10.52	463.1	391.80	0.0573	433.3	7.800	16.13	8.21	1.60
	99.26	29.98	67.70	0.00	0.0605	10.48	461.1	390.13	0.0569	429.7	7.734	15.99	8.08	1.60
	100.28	29.99	67.68	-0.00	0.0608	10.53	463.4	392.20	0.0576	436.6	7.858	16.26	8.32	1.60
	101.34	29.99	67.72	-0.00	0.0607	10.52	462.7	391.32	0.0574	432.8	7.790	16.11	8.19	1.60
	102.26	29.97	67.70	0.00	0.0608	10.53	463.3	391.91	0.0576	436.5	7.857	16.25	8.31	1.60
	103.27	29.97	67.70	0.00	0.0607	10.52	462.7	391.42	0.0581	440.1	7.922	16.38	8.44	1.60
	104.27	29.95	67.68	-0.00	0.0606	10.49	461.6	390.62	0.0577	435.6	7.840	16.22	8.28	1.60
	105.27	29.95	67.68	-0.00	0.0607	10.48	461.3	390.39	0.0584	441.1	7.940	16.42	8.47	1.60
	106.27	29.93	67.68	0.00	0.0608	10.54	463.7	392.40	0.0585	448.0	8.064	16.68	8.69	1.60
	107.27	29.93	67.70	-0.00	0.0606	10.52	462.7	391.41	0.0583	446.4	8.035	16.62	8.64	1.60
	108.27	29.95	67.70	0.00	0.0605	10.47	460.9	389.91	0.0578	438.8	7.899	16.33	8.39	1.60
	109.28	29.93	67.70	0.00	0.0607	10.51	462.4	391.12	0.0589	450.5	8.110	16.77	8.78	1.60
	110.28	29.93	67.70	-0.00	0.0606	10.50	461.9	390.74	0.0592	450.0	8.101	16.75	8.76	1.60
	111.28	29.91	67.70	-0.00	0.0606	10.51	462.6	391.31	0.0592	455.4	8.197	16.95	8.94	1.60
	112.26	29.92	67.70	0.00	0.0606	10.50	461.8	390.65	0.0596	459.8	8.276	17.11	9.08	1.60
	113.27	29.85	67.70	0.00	0.0606	10.50	462.1	390.81	0.0598	462.2	8.320	17.20	9.15	1.60
	114.27	29.88	67.68	-0.00	0.0605	10.48	460.9	389.99	0.0603	465.3	8.375	17.32	9.25	1.60
	115.27	29.86	67.65	0.00	0.0605	10.47	460.6	389.85	0.0601	464.3	8.357	17.29	9.22	1.60
	116.25	29.88	67.70	0.00	0.0605	10.45	459.9	388.95	0.0605	468.3	8.429	17.43	9.35	1.60
	117.25	29.93	67.68	0.00	0.0604	10.46	460.2	389.43	0.0607	468.2	8.427	17.43	9.35	1.60
	118.27	29.92	67.68	0.00	0.0604	10.46	460.4	389.59	0.0600	463.5	8.343	17.26	9.20	1.60
	119.28	29.99	67.68	-0.00	0.0605	10.46	460.1	389.40	0.0604	463.5	8.342	17.26	9.20	1.60
	120.26	29.97	67.67	0.00	0.0605	10.47	460.5	389.78	0.0607	469.6	8.453	17.49	9.40	1.60
	121.26	29.96	67.70	0.00	0.0605	10.47	460.6	389.62	0.0610	473.8	8.529	17.64	9.53	1.60
	122.35	29.97	67.68	-0.00	0.0605	10.46	460.3	389.57	0.0610	472.5	8.505	17.60	9.49	1.60
