Jul 28 2015 at 10:07:35
Frequency: 1.00Hz.
CO2
Zero:  Value:0.95  Date:18 Mar 2005	 at 07:22:33	
Span:  Value:1.00  Date:18 Mar 2005	 at 07:25:09	
H2O
Zero:  Value:0.71  Date:18 Mar 2005	 at 07:52:31	
Span:  Value:0.99  Date:18 Mar 2005	 at 11:44:01	
	Relative Time	Temperature	Pressure	Aux Input	CO2 Absorptance	CO2 mmol/m3	CO2 mg/m3	CO2 umol/mol	H2O Absorptance	H2O mmol/m3	H2O g/m3	H2O mmol/mol	H2O(°C)	Cooler Voltage
	0.64	20.62	67.65	-0.00	0.0628	10.98	483.1	396.35	0.0380	254.5	4.580	9.19	0.17	1.54
	1.62	20.67	67.65	0.00	0.0626	10.96	482.2	395.71	0.0383	250.0	4.500	9.03	-0.06	1.54
	2.64	20.67	67.63	0.00	0.0624	10.96	482.1	395.79	0.0383	253.1	4.556	9.14	0.11	1.54
	3.62	20.65	67.62	0.00	0.0626	10.94	481.4	395.21	0.0384	251.4	4.525	9.08	0.01	1.54
	4.63	20.67	67.63	0.00	0.0622	10.89	479.2	393.40	0.0381	250.5	4.509	9.05	-0.04	1.54
	5.63	20.69	67.62	0.00	0.0626	10.88	478.6	392.94	0.0378	247.7	4.459	8.95	-0.19	1.54
	6.63	20.69	67.62	0.00	0.0622	10.86	477.9	392.41	0.0377	246.4	4.436	8.90	-0.26	1.54
	7.71	20.71	67.65	0.00	0.0622	10.87	478.3	392.62	0.0379	247.4	4.453	8.93	-0.21	1.54
	8.64	20.69	67.65	-0.00	0.0620	10.85	477.3	391.69	0.0376	245.4	4.418	8.86	-0.32	1.54
	9.64	20.70	67.62	0.00	0.0621	10.84	476.9	391.56	0.0376	245.1	4.411	8.85	-0.34	1.54
	10.64	20.72	67.63	-0.00	0.0622	10.83	476.4	391.14	0.0380	246.5	4.437	8.91	-0.26	1.54
	11.64	20.72	67.65	0.00	0.0623	10.84	477.0	391.51	0.0383	250.5	4.509	9.05	-0.04	1.54
	12.62	20.72	67.65	0.00	0.0621	10.84	476.9	391.45	0.0390	256.5	4.618	9.27	0.29	1.54
	13.63	20.72	67.62	0.00	0.0620	10.85	477.2	391.85	0.0393	258.5	4.652	9.34	0.40	1.54
	14.63	20.74	67.65	-0.00	0.0617	10.80	475.3	390.19	0.0387	255.0	4.589	9.21	0.21	1.54
	15.63	20.74	67.63	0.00	0.0619	10.79	474.9	389.92	0.0382	249.4	4.489	9.01	-0.10	1.54
	16.64	20.74	67.62	0.00	0.0620	10.78	474.3	389.51	0.0381	248.4	4.471	8.98	-0.15	1.54
	17.64	20.74	67.65	-0.00	0.0616	10.78	474.2	389.25	0.0378	248.2	4.467	8.96	-0.16	1.54
	18.66	20.75	67.63	-0.00	0.0618	10.76	473.3	388.67	0.0381	247.6	4.458	8.95	-0.19	1.54
	19.64	20.73	67.65	-0.00	0.0620	10.77	474.0	389.06	0.0383	250.9	4.516	9.06	-0.02	1.54
	20.64	20.75	67.65	0.00	0.0620	10.81	475.7	390.51	0.0392	256.7	4.621	9.27	0.30	1.54
	21.64	20.75	67.63	-0.00	0.0618	10.79	474.9	389.96	0.0395	259.9	4.679	9.39	0.47	1.54
	22.64	20.77	67.65	0.00	0.0618	10.79	475.0	389.91	0.0392	259.0	4.661	9.35	0.42	1.54
	23.63	20.77	67.62	0.00	0.0620	10.81	475.5	390.49	0.0388	257.7	4.639	9.31	0.36	1.54
	24.63	20.79	67.67	0.00	0.0620	10.78	474.5	389.45	0.0390	256.2	4.612	9.25	0.28	1.54
	25.63	20.79	67.65	0.00	0.0621	10.78	474.5	389.53	0.0390	256.7	4.621	9.27	0.31	1.54
	26.63	20.81	67.64	0.00	0.0618	10.76	473.4	388.70	0.0393	258.9	4.660	9.35	0.42	1.54
	27.63	20.79	67.62	0.00	0.0616	10.76	473.3	388.77	0.0389	255.6	4.600	9.24	0.24	1.54
	28.63	20.77	67.65	0.00	0.0618	10.79	474.8	389.81	0.0390	257.0	4.626	9.28	0.32	1.54
	29.64	20.79	67.67	-0.00	0.0620	10.78	474.5	389.40	0.0390	256.6	4.619	9.27	0.30	1.54
	30.64	20.79	67.68	-0.00	0.0619	10.77	474.0	389.03	0.0394	259.4	4.670	9.37	0.45	1.54
	31.65	20.80	67.65	-0.00	0.0617	10.77	474.0	389.19	0.0396	262.0	4.716	9.47	0.59	1.54
	32.65	20.79	67.62	-0.00	0.0617	10.77	474.0	389.34	0.0398	262.9	4.732	9.50	0.63	1.54
	33.65	20.81	67.66	-0.00	0.0617	10.76	473.5	388.77	0.0398	263.1	4.736	9.50	0.65	1.54
	34.65	20.81	67.60	0.00	0.0619	10.75	473.1	388.76	0.0398	263.6	4.745	9.53	0.67	1.54
	35.65	20.81	67.62	-0.00	0.0618	10.74	472.7	388.28	0.0399	265.1	4.772	9.58	0.75	1.54
	36.65	20.81	67.65	-0.00	0.0616	10.75	473.2	388.49	0.0396	263.2	4.737	9.51	0.65	1.54
	37.64	20.80	67.60	-0.00	0.0617	10.75	473.0	388.68	0.0396	262.8	4.730	9.50	0.63	1.54
	38.64	20.81	67.62	-0.00	0.0618	10.74	472.4	388.03	0.0401	263.9	4.749	9.54	0.68	1.54
	39.64	20.82	67.63	0.00	0.0617	10.76	473.5	388.90	0.0404	268.9	4.841	9.72	0.95	1.54
	40.64	20.82	67.60	-0.00	0.0619	10.76	473.3	388.92	0.0405	269.4	4.849	9.74	0.97	1.54
	41.64	20.82	67.62	0.00	0.0616	10.74	472.4	388.06	0.0406	270.1	4.863	9.76	1.01	1.54
	42.62	20.84	67.62	0.00	0.0616	10.75	473.1	388.61	0.0406	270.8	4.874	9.79	1.05	1.54
	43.63	20.84	67.65	0.00	0.0619	10.76	473.4	388.77	0.0407	272.3	4.901	9.84	1.12	1.54
	44.63	20.84	67.62	-0.00	0.0617	10.74	472.6	388.19	0.0409	272.3	4.902	9.84	1.13	1.54
	45.66	20.84	67.65	-0.00	0.0615	10.74	472.4	387.90	0.0408	271.9	4.895	9.82	1.10	1.54
	46.71	20.86	67.65	0.00	0.0619	10.75	473.2	388.61	0.0408	272.1	4.897	9.83	1.11	1.54
	47.66	20.84	67.62	-0.00	0.0619	10.78	474.5	389.82	0.0410	273.6	4.924	9.89	1.19	1.54
	48.64	20.84	67.65	0.00	0.0619	10.83	476.3	391.10	0.0414	277.8	5.000	10.04	1.40	1.54
	49.64	20.84	67.63	0.00	0.0622	10.84	477.1	391.91	0.0416	280.5	5.048	10.14	1.53	1.54
	50.65	20.84	67.65	-0.00	0.0620	10.77	474.1	389.31	0.0416	277.2	4.990	10.02	1.37	1.54
	51.64	20.85	67.63	0.00	0.0618	10.83	476.3	391.27	0.0416	279.5	5.030	10.10	1.49	1.54
	52.65	20.86	67.62	-0.00	0.0617	10.77	474.1	389.46	0.0411	276.0	4.967	9.97	1.31	1.54
	53.63	20.86	67.62	0.00	0.0618	10.77	473.8	389.27	0.0414	277.8	5.000	10.04	1.40	1.54
	54.63	20.85	67.63	0.00	0.0616	10.78	474.2	389.50	0.0417	280.4	5.047	10.13	1.53	1.54
	55.63	20.86	67.60	0.00	0.0618	10.79	474.6	390.01	0.0417	280.5	5.049	10.14	1.54	1.54
	56.63	20.89	67.65	0.00	0.0621	10.81	475.7	390.69	0.0418	281.7	5.070	10.18	1.60	1.54
	57.70	20.87	67.60	0.00	0.0620	10.77	474.0	389.56	0.0419	281.9	5.075	10.19	1.61	1.54
	58.62	20.87	67.65	0.00	0.0617	10.79	474.8	389.94	0.0420	282.5	5.084	10.21	1.64	1.54
	59.64	20.87	67.65	0.00	0.0619	10.81	475.5	390.51	0.0420	283.5	5.103	10.24	1.69	1.54
	60.62	20.87	67.65	0.00	0.0620	10.83	476.3	391.19	0.0422	284.1	5.113	10.27	1.71	1.54
	61.64	20.87	67.65	0.00	0.0617	10.77	473.8	389.08	0.0420	284.0	5.112	10.26	1.71	1.54
	62.63	20.87	67.62	-0.00	0.0624	10.85	477.2	392.09	0.0426	287.6	5.176	10.40	1.89	1.54
	63.65	20.87	67.62	-0.00	0.0620	10.84	477.0	391.88	0.0426	287.7	5.179	10.40	1.89	1.54
	64.65	20.89	67.62	-0.00	0.0617	10.77	473.7	389.17	0.0424	287.5	5.175	10.39	1.88	1.54
	65.63	20.89	67.62	0.00	0.0620	10.78	474.1	389.56	0.0426	287.8	5.180	10.40	1.90	1.54
	66.63	20.89	67.62	0.00	0.0619	10.78	474.1	389.56	0.0426	287.9	5.181	10.41	1.90	1.54
	67.64	20.89	67.65	0.00	0.0617	10.78	474.2	389.42	0.0430	291.7	5.251	10.54	2.09	1.54
	68.64	20.89	67.65	-0.00	0.0616	10.76	473.5	388.92	0.0432	293.9	5.290	10.62	2.19	1.54
	69.64	20.89	67.62	0.00	0.0620	10.79	474.7	390.00	0.0432	294.2	5.296	10.64	2.21	1.54
	70.64	20.91	67.68	0.00	0.0617	10.78	474.2	389.31	0.0433	293.4	5.281	10.60	2.17	1.54
	71.71	20.91	67.65	-0.00	0.0617	10.77	474.0	389.34	0.0431	294.5	5.301	10.64	2.22	1.54
	72.63	20.89	67.65	0.00	0.0618	10.74	472.7	388.23	0.0433	295.2	5.313	10.67	2.25	1.54
	73.65	20.91	67.62	-0.00	0.0618	10.76	473.6	389.17	0.0435	294.8	5.307	10.66	2.24	1.54
	74.65	20.91	67.65	-0.00	0.0615	10.74	472.7	388.25	0.0434	297.0	5.346	10.73	2.34	1.54
	75.63	20.91	67.65	0.00	0.0616	10.74	472.7	388.27	0.0433	296.4	5.336	10.71	2.31	1.55
	76.64	20.91	67.65	0.00	0.0618	10.75	473.2	388.66	0.0435	297.8	5.360	10.76	2.38	1.55
	77.64	20.91	67.65	-0.00	0.0618	10.74	472.4	387.99	0.0436	298.0	5.364	10.77	2.39	1.54
	78.64	20.91	67.65	0.00	0.0617	10.73	471.9	387.60	0.0436	296.8	5.342	10.73	2.33	1.54
	79.62	20.92	67.65	0.00	0.0615	10.73	472.2	387.83	0.0437	297.8	5.361	10.76	2.38	1.54
	80.64	20.91	67.62	0.00	0.0615	10.72	471.6	387.45	0.0434	296.8	5.343	10.73	2.33	1.54
	81.64	20.90	67.63	-0.00	0.0617	10.71	471.2	387.12	0.0436	298.2	5.367	10.78	2.40	1.55
	82.63	20.94	67.65	0.00	0.0616	10.73	472.0	387.70	0.0440	300.7	5.412	10.87	2.51	1.54
	83.71	20.92	67.63	0.00	0.0615	10.72	471.8	387.66	0.0442	303.4	5.461	10.97	2.64	1.54
	84.65	20.92	67.65	0.00	0.0618	10.71	471.4	387.22	0.0443	303.3	5.459	10.96	2.63	1.54
	85.64	20.94	67.62	0.00	0.0615	10.72	471.6	387.56	0.0444	305.2	5.494	11.04	2.73	1.54
	86.63	20.94	67.60	0.00	0.0617	10.71	471.3	387.40	0.0443	304.1	5.474	11.00	2.67	1.55
	87.64	20.91	67.65	-0.00	0.0613	10.69	470.3	386.22	0.0444	305.0	5.489	11.02	2.71	1.55
	88.62	20.94	67.63	0.00	0.0615	10.67	469.6	385.89	0.0444	306.1	5.509	11.07	2.76	1.55
	89.64	20.96	67.68	0.00	0.0613	10.67	469.5	385.55	0.0444	303.6	5.465	10.97	2.65	1.54
	90.64	20.94	67.65	-0.00	0.0615	10.71	471.2	387.00	0.0444	305.7	5.502	11.05	2.75	1.54
	91.65	20.96	67.60	-0.00	0.0615	10.71	471.1	387.27	0.0446	306.8	5.522	11.10	2.80	1.54
	92.63	20.96	67.62	-0.00	0.0613	10.69	470.2	386.40	0.0446	307.1	5.527	11.10	2.81	1.55
	93.65	20.96	67.65	-0.00	0.0616	10.70	470.9	386.85	0.0449	309.2	5.565	11.17	2.91	1.55
	94.63	20.96	67.63	0.00	0.0613	10.69	470.6	386.68	0.0448	310.1	5.582	11.21	2.95	1.55
	95.71	20.96	67.65	-0.00	0.0615	10.70	470.9	386.80	0.0447	308.9	5.559	11.16	2.89	1.55
	96.64	20.96	67.65	0.00	0.0616	10.71	471.1	387.03	0.0450	309.9	5.579	11.20	2.94	1.55
	97.62	20.97	67.62	0.00	0.0616	10.70	471.0	387.05	0.0449	310.0	5.579	11.21	2.94	1.55
	98.64	20.96	67.63	0.00	0.0614	10.67	469.6	385.91	0.0448	309.2	5.566	11.18	2.91	1.55
	99.70	20.96	67.65	0.00	0.0612	10.68	469.9	386.04	0.0448	308.8	5.558	11.16	2.89	1.55
	100.65	20.97	67.65	-0.00	0.0614	10.69	470.3	386.41	0.0448	309.9	5.577	11.20	2.94	1.55
	101.64	20.97	67.63	0.00	0.0615	10.69	470.3	386.53	0.0451	311.8	5.612	11.27	3.03	1.55
	102.63	20.97	67.65	-0.00	0.0614	10.70	470.6	386.62	0.0451	311.9	5.614	11.27	3.03	1.55
	103.63	20.99	67.65	0.00	0.0613	10.66	469.0	385.32	0.0448	308.7	5.557	11.16	2.89	1.55
	104.64	20.97	67.60	-0.00	0.0617	10.72	471.5	387.65	0.0452	312.2	5.619	11.29	3.04	1.55
	105.64	20.99	67.65	0.00	0.0613	10.70	471.0	386.96	0.0452	313.0	5.635	11.32	3.08	1.55
	106.63	20.99	67.68	0.00	0.0616	10.69	470.5	386.43	0.0452	312.7	5.628	11.30	3.07	1.55
	107.64	20.99	67.68	-0.00	0.0616	10.72	471.9	387.52	0.0455	314.2	5.656	11.35	3.14	1.55
	108.64	20.99	67.65	0.00	0.0615	10.71	471.4	387.32	0.0454	314.4	5.660	11.37	3.15	1.55
	109.64	20.99	67.62	0.00	0.0617	10.72	471.6	387.59	0.0456	315.5	5.679	11.41	3.19	1.55
	110.65	20.99	67.63	-0.00	0.0616	10.70	470.9	386.98	0.0456	315.9	5.686	11.42	3.21	1.55
	111.63	20.99	67.65	0.00	0.0612	10.69	470.3	386.38	0.0454	315.9	5.685	11.42	3.21	1.55
	112.63	20.99	67.63	0.00	0.0613	10.62	467.4	384.15	0.0454	312.3	5.622	11.29	3.05	1.55
	113.65	21.01	67.65	-0.00	0.0614	10.71	471.1	387.10	0.0458	317.3	5.712	11.47	3.28	1.55
	114.63	21.01	67.62	0.00	0.0616	10.71	471.2	387.26	0.0457	317.3	5.711	11.48	3.28	1.55
	115.71	20.97	67.65	0.00	0.0615	10.70	470.6	386.61	0.0460	318.5	5.733	11.51	3.33	1.55
	116.64	21.01	67.68	-0.00	0.0614	10.72	471.5	387.29	0.0460	320.0	5.760	11.56	3.39	1.55
	117.62	21.01	67.62	0.00	0.0616	10.70	470.8	386.93	0.0461	319.8	5.757	11.57	3.39	1.55
	118.64	21.03	67.65	-0.00	0.0615	10.69	470.3	386.42	0.0459	319.4	5.749	11.55	3.37	1.55
