Jul 28 2015 at 14:52:57
Frequency: 1.00Hz.
CO2
Zero:  Value:0.95  Date:18 Mar 2005	 at 07:22:33	
Span:  Value:1.00  Date:18 Mar 2005	 at 07:25:09	
H2O
Zero:  Value:0.71  Date:18 Mar 2005	 at 07:52:31	
Span:  Value:0.99  Date:18 Mar 2005	 at 11:44:01	
	Relative Time	Temperature	Pressure	Aux Input	CO2 Absorptance	CO2 mmol/m3	CO2 mg/m3	CO2 umol/mol	H2O Absorptance	H2O mmol/m3	H2O g/m3	H2O mmol/mol	H2O(°C)	Cooler Voltage
	0.23	33.38	67.70	-0.00	0.0617	10.75	472.9	404.59	0.0460	321.3	5.784	12.09	4.04	1.62
	1.22	33.35	67.71	0.00	0.0616	10.72	471.6	403.41	0.0460	319.3	5.747	12.02	3.95	1.62
	2.23	33.40	67.70	-0.00	0.0615	10.71	471.2	403.16	0.0457	318.5	5.734	11.99	3.92	1.62
	3.21	33.31	67.72	0.00	0.0614	10.70	470.7	402.48	0.0463	322.1	5.798	12.12	4.07	1.62
	4.21	33.43	67.70	0.00	0.0615	10.71	471.0	403.01	0.0463	324.8	5.846	12.23	4.19	1.61
	5.21	33.47	67.68	0.00	0.0614	10.68	470.1	402.45	0.0467	324.4	5.838	12.22	4.18	1.62
	6.22	33.57	67.72	0.00	0.0614	10.66	468.9	401.27	0.0476	330.4	5.947	12.44	4.45	1.61
	7.22	33.58	67.75	0.00	0.0614	10.68	469.9	401.96	0.0472	334.7	6.025	12.60	4.63	1.62
	8.24	33.60	67.75	-0.00	0.0612	10.67	469.4	401.62	0.0476	338.9	6.100	12.76	4.81	1.62
	9.30	33.64	67.75	0.00	0.0611	10.64	468.0	400.44	0.0477	337.2	6.070	12.70	4.74	1.62
	10.22	33.63	67.73	0.00	0.0613	10.65	468.6	401.04	0.0485	343.0	6.174	12.92	4.98	1.62
	11.25	33.64	67.73	-0.00	0.0613	10.62	467.2	399.90	0.0487	347.0	6.246	13.07	5.15	1.61
	12.21	33.62	67.73	0.00	0.0613	10.65	468.6	401.03	0.0492	350.3	6.306	13.19	5.29	1.62
	13.23	33.62	67.75	0.00	0.0611	10.61	466.8	399.42	0.0497	352.6	6.348	13.28	5.38	1.61
	14.21	33.69	67.73	0.00	0.0613	10.64	468.0	400.66	0.0502	358.5	6.453	13.50	5.62	1.62
	15.22	33.68	67.70	0.00	0.0612	10.64	468.3	401.05	0.0499	358.7	6.457	13.52	5.63	1.62
	16.21	33.68	67.72	0.00	0.0612	10.64	468.1	400.75	0.0503	362.0	6.516	13.64	5.76	1.61
	17.22	33.71	67.72	0.00	0.0613	10.64	468.3	400.92	0.0510	365.9	6.586	13.78	5.92	1.61
	18.24	33.76	67.73	-0.00	0.0612	10.64	468.0	400.72	0.0511	369.2	6.645	13.91	6.05	1.61
	19.23	33.73	67.73	-0.00	0.0612	10.64	468.0	400.73	0.0517	373.8	6.729	14.08	6.23	1.61
	20.23	33.75	67.70	-0.00	0.0613	10.64	468.3	401.14	0.0519	376.9	6.784	14.20	6.35	1.62
	21.23	33.75	67.75	-0.00	0.0613	10.63	467.6	400.23	0.0524	378.3	6.810	14.25	6.40	1.61
	22.23	33.73	67.73	-0.00	0.0613	10.65	468.5	401.12	0.0523	381.5	6.867	14.37	6.52	1.61
	23.21	33.75	67.70	0.00	0.0613	10.65	468.5	401.29	0.0521	380.2	6.844	14.33	6.48	1.61
	24.23	33.82	67.73	0.00	0.0611	10.63	467.5	400.39	0.0522	381.3	6.863	14.37	6.52	1.61
	25.23	33.81	67.68	0.00	0.0611	10.61	466.8	400.02	0.0521	381.8	6.873	14.40	6.54	1.61
	26.24	33.75	67.73	-0.00	0.0612	10.62	467.4	400.18	0.0529	387.3	6.971	14.59	6.74	1.62
	27.22	33.83	67.75	0.00	0.0610	10.61	467.0	399.80	0.0520	392.2	7.059	14.77	6.93	1.62
	28.24	33.72	67.70	0.00	0.0612	10.64	468.0	400.82	0.0534	389.1	7.003	14.66	6.81	1.61
	29.22	33.68	67.70	0.00	0.0610	10.60	466.4	399.43	0.0535	395.0	7.109	14.88	7.03	1.61
	30.23	33.67	67.73	-0.00	0.0612	10.62	467.3	400.05	0.0550	411.7	7.411	15.51	7.63	1.61
	31.23	33.60	67.73	0.00	0.0611	10.62	467.1	399.72	0.0547	412.2	7.419	15.52	7.65	1.62
	32.23	33.63	67.70	0.00	0.0610	10.56	464.7	397.93	0.0545	398.6	7.175	15.02	7.16	1.62
	33.23	33.59	67.73	-0.00	0.0613	10.65	468.5	400.91	0.0558	417.7	7.518	15.73	7.84	1.61
	34.30	33.52	67.73	0.00	0.0612	10.64	468.2	400.58	0.0565	423.2	7.617	15.93	8.03	1.61
	35.21	33.50	67.73	0.00	0.0610	10.61	466.9	399.43	0.0560	421.3	7.583	15.86	7.96	1.61
	36.22	33.54	67.73	0.00	0.0612	10.63	467.6	400.07	0.0567	428.3	7.709	16.12	8.21	1.61
	37.22	33.52	67.75	0.00	0.0611	10.62	467.3	399.65	0.0573	434.0	7.812	16.33	8.40	1.62
	38.23	33.47	67.72	0.00	0.0612	10.62	467.3	399.75	0.0580	440.3	7.925	16.57	8.61	1.61
	39.23	33.47	67.72	-0.00	0.0611	10.59	466.0	398.64	0.0581	439.9	7.918	16.56	8.60	1.61
	40.23	33.45	67.75	0.00	0.0612	10.62	467.4	399.67	0.0589	444.7	8.005	16.73	8.76	1.61
	41.29	33.43	67.73	0.00	0.0611	10.62	467.2	399.63	0.0593	454.8	8.186	17.12	9.09	1.61
	42.23	33.43	67.75	0.00	0.0611	10.61	466.8	399.12	0.0594	450.0	8.100	16.93	8.93	1.61
	43.23	33.41	67.70	-0.00	0.0612	10.63	467.6	400.09	0.0601	462.2	8.319	17.40	9.33	1.61
	44.24	33.46	67.73	-0.00	0.0612	10.61	466.9	399.42	0.0604	463.3	8.340	17.44	9.36	1.61
	45.22	33.43	67.73	0.00	0.0612	10.63	467.9	400.16	0.0607	467.9	8.422	17.61	9.51	1.61
	46.24	33.45	67.73	-0.00	0.0611	10.63	467.9	400.26	0.0603	471.4	8.484	17.74	9.62	1.61
	47.22	33.50	67.72	-0.00	0.0612	10.63	467.7	400.14	0.0609	470.7	8.472	17.72	9.60	1.61
	48.22	33.50	67.77	0.00	0.0611	10.63	467.7	399.85	0.0602	465.6	8.381	17.51	9.44	1.61
	49.22	33.52	67.75	0.00	0.0612	10.64	468.2	400.41	0.0596	466.3	8.393	17.55	9.46	1.61
	50.23	33.57	67.75	0.00	0.0611	10.60	466.3	398.92	0.0584	446.7	8.040	16.81	8.83	1.62
	51.22	33.53	67.70	0.00	0.0612	10.63	467.8	400.35	0.0599	459.4	8.269	17.30	9.24	1.61
	52.23	33.54	67.72	-0.00	0.0612	10.64	468.3	400.70	0.0605	467.4	8.413	17.60	9.50	1.61
	53.23	33.58	67.75	0.00	0.0612	10.62	467.2	399.65	0.0598	461.7	8.310	17.38	9.32	1.61
	54.23	33.62	67.75	0.00	0.0610	10.59	466.2	398.84	0.0596	460.0	8.280	17.32	9.27	1.61
	55.22	33.62	67.73	0.00	0.0611	10.61	466.8	399.55	0.0599	463.3	8.339	17.45	9.37	1.61
	56.24	33.70	67.73	-0.00	0.0611	10.58	465.3	398.36	0.0601	460.5	8.289	17.35	9.29	1.62
	57.24	33.68	67.72	-0.00	0.0609	10.55	464.3	397.43	0.0602	458.2	8.248	17.26	9.21	1.61
	58.23	33.70	67.70	-0.00	0.0610	10.61	466.6	399.62	0.0611	475.1	8.552	17.90	9.75	1.61
	59.22	33.75	67.73	0.00	0.0611	10.61	467.0	399.82	0.0617	478.3	8.610	18.02	9.85	1.61
	60.23	33.71	67.70	-0.00	0.0612	10.62	467.1	400.08	0.0623	485.3	8.736	18.29	10.07	1.62
	61.21	33.68	67.73	0.00	0.0612	10.62	467.4	400.12	0.0625	489.8	8.816	18.45	10.20	1.61
	62.23	33.62	67.72	0.00	0.0611	10.59	466.1	398.93	0.0626	485.4	8.737	18.28	10.07	1.61
	63.21	33.56	67.73	0.00	0.0612	10.63	467.6	400.16	0.0630	495.3	8.916	18.65	10.37	1.61
	64.22	33.57	67.73	0.00	0.0610	10.57	465.0	397.93	0.0623	486.9	8.763	18.33	10.11	1.61
	65.22	33.55	67.71	0.00	0.0610	10.57	465.0	398.02	0.0629	489.0	8.803	18.42	10.17	1.61
	66.22	33.50	67.73	0.00	0.0609	10.57	465.2	398.00	0.0626	488.8	8.799	18.40	10.17	1.62
	67.22	33.45	67.75	-0.00	0.0611	10.59	465.8	398.34	0.0635	499.2	8.985	18.78	10.48	1.61
	68.23	33.45	67.72	0.00	0.0611	10.60	466.3	398.93	0.0630	498.4	8.971	18.76	10.45	1.61
	69.22	33.45	67.70	0.00	0.0610	10.59	465.8	398.62	0.0627	496.5	8.937	18.69	10.40	1.61
	70.25	33.43	67.70	-0.00	0.0611	10.61	466.7	399.37	0.0640	504.3	9.078	18.99	10.63	1.61
	71.23	33.44	67.73	-0.00	0.0609	10.59	466.2	398.73	0.0635	503.8	9.068	18.96	10.62	1.61
	72.24	33.45	67.73	0.00	0.0613	10.63	467.8	400.17	0.0646	513.8	9.249	19.34	10.91	1.62
	73.23	33.48	67.70	-0.00	0.0612	10.62	467.1	399.75	0.0644	512.8	9.231	19.31	10.88	1.61
	74.24	33.47	67.68	-0.00	0.0612	10.62	467.5	400.18	0.0642	509.1	9.163	19.17	10.77	1.61
	75.29	33.45	67.70	0.00	0.0611	10.61	467.0	399.61	0.0637	506.1	9.109	19.05	10.68	1.61
	76.24	33.50	67.73	-0.00	0.0612	10.61	466.9	399.47	0.0640	507.5	9.135	19.10	10.73	1.61
	77.22	33.52	67.73	0.00	0.0610	10.60	466.6	399.21	0.0637	507.0	9.126	19.09	10.71	1.62
	78.22	33.52	67.75	0.00	0.0612	10.62	467.3	399.65	0.0645	514.4	9.258	19.36	10.93	1.62
	79.22	33.50	67.72	-0.00	0.0611	10.61	466.6	399.24	0.0644	507.2	9.129	19.09	10.72	1.62
	80.22	33.52	67.70	0.00	0.0611	10.61	467.0	399.72	0.0649	519.0	9.341	19.54	11.06	1.61
	81.21	33.54	67.75	0.00	0.0612	10.63	467.6	399.97	0.0657	526.9	9.484	19.83	11.29	1.61
	82.23	33.49	67.70	0.00	0.0611	10.62	467.1	399.76	0.0654	527.2	9.490	19.85	11.30	1.62
	83.23	33.54	67.73	0.00	0.0611	10.61	466.9	399.53	0.0656	527.1	9.488	19.84	11.30	1.62
	84.21	33.53	67.73	0.00	0.0611	10.61	466.8	399.37	0.0652	523.0	9.413	19.69	11.18	1.62
	85.22	33.54	67.70	0.00	0.0612	10.59	465.7	398.66	0.0657	522.0	9.397	19.66	11.15	1.61
	86.21	33.55	67.73	0.00	0.0612	10.63	467.9	400.33	0.0659	529.2	9.525	19.92	11.36	1.61
	87.22	33.55	67.70	0.00	0.0611	10.62	467.1	399.86	0.0659	528.3	9.509	19.90	11.34	1.61
	88.20	33.54	67.72	0.00	0.0611	10.61	467.1	399.65	0.0662	532.9	9.592	20.06	11.47	1.61
	89.22	33.54	67.70	0.00	0.0610	10.59	466.0	398.89	0.0665	536.8	9.663	20.22	11.58	1.62
	90.29	33.53	67.70	0.00	0.0612	10.62	467.4	400.08	0.0669	541.4	9.746	20.39	11.71	1.62
	91.21	33.55	67.70	0.00	0.0611	10.61	467.1	399.78	0.0671	544.3	9.797	20.50	11.78	1.61
	92.31	33.56	67.70	0.00	0.0612	10.63	467.9	400.48	0.0671	543.4	9.780	20.46	11.76	1.62
	93.23	33.58	67.73	0.00	0.0611	10.59	465.9	398.70	0.0670	542.4	9.763	20.42	11.73	1.62
	94.30	33.57	67.70	0.00	0.0611	10.60	466.4	399.30	0.0672	545.4	9.818	20.55	11.82	1.61
	95.22	33.58	67.73	0.00	0.0612	10.61	466.9	399.59	0.0673	544.9	9.809	20.52	11.80	1.62
	96.24	33.57	67.73	-0.00	0.0611	10.60	466.2	398.95	0.0674	545.8	9.825	20.55	11.83	1.62
	97.23	33.61	67.72	-0.00	0.0612	10.62	467.2	399.85	0.0679	552.9	9.952	20.82	12.03	1.62
	98.23	33.58	67.73	0.00	0.0612	10.63	467.6	400.15	0.0679	554.6	9.982	20.88	12.07	1.61
	99.23	33.61	67.70	-0.00	0.0612	10.63	467.7	400.47	0.0681	555.4	9.997	20.92	12.09	1.62
	100.22	33.59	67.73	0.00	0.0612	10.64	468.0	400.53	0.0684	558.4	10.052	21.03	12.18	1.62
	101.21	33.59	67.70	0.00	0.0611	10.62	467.1	399.87	0.0682	560.1	10.081	21.10	12.22	1.62
	102.23	33.63	67.72	0.00	0.0612	10.64	468.1	400.64	0.0689	565.8	10.184	21.31	12.38	1.62
	103.22	33.63	67.70	0.00	0.0612	10.63	467.6	400.32	0.0691	568.8	10.238	21.43	12.46	1.62
	104.22	33.63	67.70	0.00	0.0613	10.64	468.3	400.94	0.0693	571.4	10.285	21.53	12.53	1.62
	105.22	33.60	67.72	0.00	0.0612	10.64	468.2	400.69	0.0693	569.1	10.244	21.43	12.47	1.61
	106.22	33.58	67.72	0.00	0.0612	10.64	468.0	400.54	0.0696	574.0	10.333	21.62	12.60	1.62
	107.23	33.58	67.75	-0.00	0.0611	10.60	466.5	399.05	0.0696	572.1	10.297	21.53	12.54	1.62
	108.22	33.61	67.73	0.00	0.0612	10.65	468.4	400.89	0.0700	577.9	10.403	21.76	12.70	1.62
	109.29	33.60	67.73	0.00	0.0613	10.65	468.4	400.87	0.0703	582.0	10.476	21.92	12.81	1.62
	110.23	33.59	67.70	0.00	0.0613	10.64	468.1	400.74	0.0701	582.2	10.479	21.93	12.81	1.62
	111.23	33.56	67.75	-0.00	0.0612	10.63	467.6	399.98	0.0699	580.4	10.446	21.84	12.76	1.62
	112.21	33.58	67.73	0.00	0.0611	10.60	466.4	399.10	0.0698	575.2	10.353	21.66	12.63	1.62
	113.22	33.61	67.75	-0.00	0.0610	10.60	466.6	399.16	0.0698	579.0	10.421	21.79	12.73	1.62
	114.21	33.58	67.73	0.00	0.0611	10.62	467.4	399.94	0.0703	583.6	10.505	21.97	12.85	1.62
	115.22	33.62	67.70	0.00	0.0612	10.61	467.1	399.89	0.0710	591.3	10.644	22.28	13.05	1.62
	116.22	33.65	67.70	-0.00	0.0611	10.60	466.5	399.41	0.0710	587.6	10.576	22.14	12.96	1.62
	117.30	33.65	67.72	-0.00	0.0611	10.61	466.8	399.64	0.0710	590.5	10.628	22.24	13.03	1.62
	118.23	33.62	67.75	0.00	0.0611	10.61	466.8	399.37	0.0711	593.8	10.689	22.36	13.12	1.62
	119.23	33.62	67.68	0.00	0.0612	10.63	467.6	400.52	0.0720	603.5	10.863	22.74	13.36	1.62
