Jul 28 2015 at 16:24:56
Frequency: 1.00Hz.
CO2
Zero:  Value:0.95  Date:18 Mar 2005	 at 07:22:33	
Span:  Value:1.00  Date:18 Mar 2005	 at 07:25:09	
H2O
Zero:  Value:0.71  Date:18 Mar 2005	 at 07:52:31	
Span:  Value:0.99  Date:18 Mar 2005	 at 11:44:01	
	Relative Time	Temperature	Pressure	Aux Input	CO2 Absorptance	CO2 mmol/m3	CO2 mg/m3	CO2 umol/mol	H2O Absorptance	H2O mmol/m3	H2O g/m3	H2O mmol/mol	H2O(°C)	Cooler Voltage
	0.03	31.97	66.87	-0.00	0.0611	10.68	469.7	404.98	0.0455	319.0	5.741	12.10	3.87	1.59
	1.03	31.97	66.87	-0.00	0.0612	10.64	468.3	403.80	0.0457	316.2	5.691	11.99	3.74	1.59
	2.03	31.99	66.89	0.00	0.0609	10.62	467.4	402.91	0.0449	311.5	5.606	11.81	3.53	1.59
	3.03	31.97	66.87	0.00	0.0607	10.58	465.5	401.35	0.0443	306.9	5.523	11.64	3.32	1.59
	4.03	31.99	66.89	-0.00	0.0606	10.54	463.6	399.60	0.0439	302.4	5.443	11.47	3.11	1.59
	5.04	31.99	66.89	-0.00	0.0608	10.57	465.0	400.75	0.0443	305.1	5.492	11.57	3.24	1.59
	6.04	32.04	66.88	-0.00	0.0607	10.56	464.8	400.74	0.0443	305.6	5.501	11.59	3.26	1.59
	7.02	32.03	66.88	0.00	0.0608	10.59	466.0	401.85	0.0444	306.1	5.510	11.61	3.29	1.59
	8.03	32.05	66.87	0.00	0.0609	10.60	466.6	402.41	0.0445	307.3	5.531	11.66	3.34	1.59
	9.02	32.05	66.87	0.00	0.0609	10.60	466.5	402.33	0.0445	306.4	5.515	11.63	3.30	1.59
	10.03	32.07	66.89	-0.00	0.0606	10.52	463.0	399.20	0.0448	307.2	5.529	11.65	3.34	1.59
	11.01	32.09	66.87	0.00	0.0604	10.52	463.1	399.44	0.0474	340.3	6.125	12.91	4.80	1.59
	12.01	32.12	66.87	0.00	0.0605	10.52	462.8	399.24	0.0478	342.4	6.163	12.99	4.89	1.59
	13.03	32.09	66.87	0.00	0.0608	10.54	463.9	400.14	0.0465	329.3	5.927	12.50	4.33	1.59
	14.10	32.09	66.87	-0.00	0.0607	10.58	465.4	401.40	0.0468	327.6	5.897	12.43	4.26	1.59
	15.01	32.08	66.87	0.00	0.0607	10.54	463.8	400.04	0.0472	332.9	5.993	12.63	4.48	1.59
	16.02	32.03	66.87	-0.00	0.0607	10.56	464.5	400.58	0.0465	328.5	5.913	12.47	4.29	1.59
	17.02	32.01	66.89	0.00	0.0607	10.55	464.1	400.10	0.0460	320.6	5.770	12.16	3.94	1.59
	18.02	31.97	66.85	0.00	0.0608	10.58	465.5	401.52	0.0465	327.3	5.891	12.42	4.23	1.59
	19.02	31.95	66.87	-0.00	0.0608	10.60	466.4	402.07	0.0466	326.8	5.883	12.40	4.22	1.59
	20.02	31.92	66.82	0.00	0.0608	10.58	465.6	401.72	0.0473	331.7	5.970	12.59	4.42	1.59
	21.03	31.93	66.87	0.00	0.0607	10.55	464.4	400.32	0.0473	335.5	6.038	12.72	4.59	1.59
	22.03	31.92	66.87	-0.00	0.0606	10.54	464.0	399.98	0.0487	345.3	6.215	13.10	5.00	1.59
	23.03	31.91	66.87	0.00	0.0604	10.50	462.2	398.41	0.0509	367.0	6.605	13.92	5.87	1.59
	24.04	31.94	66.87	-0.00	0.0602	10.47	460.7	397.22	0.0511	370.0	6.659	14.03	5.99	1.59
	25.10	31.89	66.87	0.00	0.0602	10.44	459.3	395.89	0.0520	379.5	6.830	14.39	6.36	1.59
	26.02	31.91	66.87	0.00	0.0601	10.44	459.6	396.17	0.0511	371.0	6.679	14.07	6.03	1.59
	27.02	31.89	66.90	0.00	0.0601	10.41	458.1	394.66	0.0526	392.2	7.059	14.87	6.84	1.59
	28.02	31.93	66.89	-0.00	0.0603	10.46	460.4	396.80	0.0517	377.4	6.794	14.31	6.28	1.59
	29.02	31.89	66.87	0.00	0.0607	10.58	465.5	401.24	0.0495	346.9	6.244	13.16	5.06	1.59
	30.03	31.92	66.92	-0.00	0.0606	10.52	462.9	398.78	0.0506	365.9	6.586	13.87	5.83	1.59
	31.03	31.90	66.92	-0.00	0.0603	10.46	460.4	396.57	0.0521	388.0	6.985	14.71	6.68	1.59
	32.03	31.85	66.87	-0.00	0.0606	10.56	464.9	400.62	0.0511	364.5	6.561	13.82	5.78	1.59
	33.01	31.92	66.89	0.00	0.0603	10.47	460.8	397.06	0.0526	386.1	6.949	14.64	6.61	1.59
	34.01	31.89	66.87	0.00	0.0598	10.37	456.3	393.32	0.0550	405.9	7.307	15.40	7.34	1.59
	35.02	31.89	66.90	0.00	0.0598	10.32	453.9	391.05	0.0544	404.7	7.285	15.34	7.30	1.59
	36.02	31.91	66.89	-0.00	0.0598	10.36	455.8	392.76	0.0553	407.3	7.332	15.44	7.39	1.59
	37.02	31.94	66.89	-0.00	0.0599	10.37	456.4	393.31	0.0543	406.9	7.323	15.43	7.38	1.59
	38.05	31.93	66.92	-0.00	0.0599	10.40	457.4	394.03	0.0542	398.8	7.178	15.11	7.08	1.59
	39.03	31.93	66.89	0.00	0.0596	10.32	454.3	391.52	0.0557	418.2	7.528	15.86	7.78	1.59
	40.03	31.95	66.89	-0.00	0.0596	10.32	454.1	391.33	0.0549	411.6	7.408	15.61	7.55	1.59
	41.04	31.93	66.89	-0.00	0.0598	10.35	455.5	392.59	0.0545	405.1	7.291	15.36	7.31	1.59
	42.03	31.93	66.87	0.00	0.0596	10.32	453.9	391.28	0.0569	424.3	7.638	16.10	7.99	1.59
	43.01	31.94	66.87	0.00	0.0599	10.36	456.0	393.11	0.0540	405.0	7.291	15.36	7.31	1.59
	44.02	31.95	66.87	0.00	0.0598	10.35	455.6	392.77	0.0542	402.0	7.237	15.25	7.20	1.59
	45.02	31.95	66.89	0.00	0.0596	10.32	453.9	391.21	0.0556	414.5	7.462	15.72	7.65	1.59
	46.02	31.96	66.87	-0.00	0.0597	10.34	455.1	392.39	0.0551	413.1	7.436	15.67	7.60	1.59
	47.02	31.95	66.87	0.00	0.0596	10.32	454.0	391.38	0.0557	418.1	7.525	15.86	7.78	1.59
	48.02	31.98	66.87	0.00	0.0595	10.31	453.8	391.26	0.0559	412.5	7.425	15.65	7.58	1.59
	49.02	31.95	66.87	0.00	0.0595	10.28	452.3	389.90	0.0558	419.6	7.552	15.92	7.83	1.59
	50.01	31.95	66.87	0.00	0.0592	10.21	449.4	387.45	0.0564	426.4	7.676	16.18	8.07	1.59
	51.03	31.96	66.86	-0.00	0.0593	10.23	450.0	387.96	0.0570	432.7	7.789	16.42	8.28	1.59
	52.03	31.98	66.87	-0.00	0.0591	10.22	449.8	387.82	0.0571	435.7	7.843	16.53	8.38	1.59
	53.02	31.95	66.89	0.00	0.0594	10.24	450.5	388.30	0.0562	434.2	7.815	16.46	8.33	1.59
	54.02	31.95	66.87	-0.00	0.0593	10.24	450.7	388.60	0.0565	428.9	7.720	16.27	8.15	1.59
	55.02	31.98	66.87	-0.00	0.0591	10.20	448.9	387.03	0.0573	437.1	7.867	16.58	8.43	1.59
	56.02	31.98	66.89	0.00	0.0589	10.18	448.0	386.14	0.0564	432.2	7.780	16.39	8.27	1.59
	57.02	31.95	66.87	0.00	0.0592	10.20	448.7	386.83	0.0564	430.7	7.752	16.34	8.21	1.59
	58.03	31.97	66.88	-0.00	0.0591	10.23	450.1	388.03	0.0567	427.5	7.695	16.22	8.10	1.59
	59.05	31.98	66.89	-0.00	0.0589	10.14	446.4	384.74	0.0571	432.7	7.789	16.41	8.28	1.59
	60.03	31.95	66.87	-0.00	0.0590	10.19	448.4	386.59	0.0583	440.2	7.923	16.70	8.53	1.59
	61.03	31.97	66.92	0.00	0.0591	10.21	449.4	387.19	0.0574	433.8	7.808	16.45	8.32	1.59
	62.03	31.95	66.87	0.00	0.0585	10.10	444.5	383.19	0.0581	443.7	7.987	16.83	8.65	1.59
	63.02	31.93	66.89	0.00	0.0584	10.07	443.2	381.93	0.0580	445.4	8.017	16.89	8.71	1.59
	64.02	31.98	66.89	-0.00	0.0587	10.13	445.6	384.04	0.0590	453.4	8.162	17.20	8.97	1.59
	65.01	31.93	66.89	0.00	0.0586	10.08	443.3	382.08	0.0591	453.6	8.165	17.20	8.98	1.59
	66.03	31.95	66.91	-0.00	0.0586	10.06	442.8	381.48	0.0593	455.8	8.204	17.28	9.05	1.59
	67.08	31.97	66.90	0.00	0.0586	10.09	443.9	382.58	0.0591	454.9	8.189	17.25	9.02	1.59
	68.03	31.95	66.89	-0.00	0.0589	10.15	446.8	385.04	0.0591	455.1	8.192	17.26	9.03	1.59
	69.02	31.95	66.87	0.00	0.0590	10.17	447.3	385.67	0.0592	455.2	8.193	17.27	9.03	1.59
	70.01	31.95	66.89	0.00	0.0591	10.19	448.2	386.26	0.0594	459.3	8.267	17.42	9.16	1.59
	71.00	31.96	66.87	0.00	0.0589	10.17	447.6	385.92	0.0595	460.2	8.283	17.46	9.19	1.59
	72.01	31.97	66.89	0.00	0.0589	10.13	445.8	384.20	0.0595	459.5	8.271	17.42	9.17	1.59
	73.02	32.00	66.87	0.00	0.0586	10.11	444.9	383.58	0.0601	465.0	8.371	17.64	9.35	1.59
	74.10	31.95	66.87	0.00	0.0583	10.01	440.6	379.89	0.0604	468.6	8.434	17.78	9.46	1.59
	75.04	32.00	66.87	-0.00	0.0588	10.14	446.2	384.75	0.0598	464.0	8.352	17.60	9.32	1.59
	76.03	32.00	66.89	0.00	0.0587	10.11	445.1	383.64	0.0604	467.2	8.410	17.72	9.42	1.59
	77.02	31.95	66.87	0.00	0.0586	10.07	443.1	382.03	0.0607	472.2	8.500	17.91	9.57	1.59
	78.03	31.98	66.89	0.00	0.0585	10.06	442.5	381.43	0.0616	479.4	8.629	18.18	9.80	1.59
	79.02	31.95	66.89	0.00	0.0586	10.10	444.4	382.98	0.0612	476.5	8.577	18.07	9.71	1.59
	80.01	31.95	66.89	0.00	0.0586	10.09	443.9	382.59	0.0608	476.1	8.570	18.05	9.70	1.59
	81.01	31.98	66.89	0.00	0.0587	10.10	444.4	383.06	0.0609	475.7	8.563	18.04	9.69	1.59
	82.01	31.94	66.84	0.00	0.0585	10.06	442.8	381.88	0.0611	476.6	8.579	18.09	9.71	1.59
	83.04	31.93	66.89	-0.00	0.0586	10.10	444.3	382.91	0.0615	479.8	8.637	18.20	9.81	1.59
	84.08	31.93	66.87	0.00	0.0580	9.97	438.8	378.23	0.0631	497.9	8.962	18.88	10.36	1.59
	85.00	31.92	66.87	0.00	0.0581	9.93	437.1	376.83	0.0646	525.0	9.449	19.91	11.16	1.59
	86.02	31.95	66.89	0.00	0.0578	9.94	437.4	376.95	0.0640	503.7	9.067	19.10	10.54	1.59
	87.02	31.93	66.87	0.00	0.0582	9.99	439.7	379.01	0.0633	504.3	9.077	19.13	10.56	1.59
	88.00	31.93	66.86	0.00	0.0577	9.92	436.6	376.38	0.0625	502.8	9.050	19.07	10.51	1.59
	89.01	31.95	66.90	0.00	0.0580	9.95	437.7	377.16	0.0621	492.2	8.860	18.66	10.19	1.59
	90.03	31.93	66.90	-0.00	0.0580	9.99	439.6	378.77	0.0623	484.0	8.712	18.35	9.94	1.59
	91.01	31.91	66.87	-0.00	0.0579	9.91	436.1	375.88	0.0621	490.8	8.834	18.61	10.15	1.59
	92.01	31.94	66.90	0.00	0.0581	9.96	438.1	377.54	0.0626	495.7	8.923	18.80	10.30	1.59
	93.01	31.94	66.87	0.00	0.0582	9.99	439.6	378.95	0.0637	506.7	9.121	19.22	10.63	1.59
	94.02	31.91	66.87	-0.00	0.0582	10.01	440.5	379.71	0.0639	508.2	9.148	19.28	10.67	1.59
	95.02	31.91	66.87	0.00	0.0580	9.97	438.5	377.96	0.0645	519.8	9.357	19.72	11.01	1.59
	96.03	31.90	66.89	-0.00	0.0580	9.95	437.8	377.24	0.0640	505.3	9.096	19.16	10.59	1.59
	97.02	31.94	66.89	0.00	0.0581	9.96	438.4	377.82	0.0647	520.8	9.374	19.75	11.04	1.59
	98.02	31.90	66.89	0.00	0.0580	9.95	437.9	377.30	0.0634	495.3	8.915	18.78	10.28	1.59
	99.01	31.91	66.87	0.00	0.0579	9.95	437.6	377.23	0.0639	511.2	9.201	19.39	10.76	1.59
	100.01	31.90	66.89	0.00	0.0578	9.91	436.0	375.67	0.0628	497.2	8.950	18.85	10.34	1.59
	101.03	31.94	66.89	0.00	0.0577	9.91	436.2	375.96	0.0631	499.9	8.998	18.96	10.42	1.59
	102.01	31.91	66.89	0.00	0.0578	9.93	436.7	376.35	0.0626	496.2	8.931	18.81	10.31	1.59
	103.01	31.91	66.89	0.00	0.0581	9.97	438.9	378.20	0.0631	498.9	8.980	18.92	10.39	1.59
	104.02	31.93	66.90	0.00	0.0580	9.95	438.0	377.41	0.0632	498.1	8.966	18.89	10.37	1.59
	105.02	31.91	66.87	0.00	0.0580	9.96	438.4	377.96	0.0640	511.7	9.211	19.41	10.77	1.59
	106.00	31.91	66.89	0.00	0.0578	9.93	436.8	376.42	0.0652	519.5	9.351	19.70	11.00	1.59
	107.03	31.91	66.89	-0.00	0.0575	9.85	433.6	373.64	0.0673	550.5	9.909	20.87	11.88	1.59
	108.02	31.94	66.89	0.00	0.0577	9.88	434.5	374.46	0.0667	546.2	9.832	20.71	11.76	1.59
	109.00	31.89	66.89	0.00	0.0580	9.95	437.6	377.09	0.0658	533.6	9.606	20.23	11.40	1.59
	110.03	31.94	66.89	-0.00	0.0579	9.89	435.1	374.97	0.0653	528.1	9.506	20.02	11.25	1.59
	111.03	31.91	66.89	0.00	0.0576	9.86	433.8	373.80	0.0655	523.6	9.425	19.85	11.12	1.59
	112.02	31.99	66.91	-0.00	0.0578	9.87	434.3	374.20	0.0663	538.2	9.688	20.41	11.54	1.59
	113.01	31.93	66.87	0.00	0.0579	9.92	436.3	376.14	0.0657	532.0	9.575	20.18	11.36	1.59
	114.02	31.97	66.92	0.00	0.0578	9.91	435.9	375.52	0.0642	515.8	9.285	19.55	10.90	1.59
	115.02	31.96	66.89	0.00	0.0576	9.87	434.4	374.42	0.0651	523.0	9.414	19.83	11.10	1.59
	116.00	31.95	66.87	0.00	0.0577	9.90	435.6	375.56	0.0658	530.4	9.547	20.12	11.32	1.59
	117.02	31.96	66.92	0.00	0.0575	9.86	433.7	373.69	0.0666	537.5	9.675	20.38	11.52	1.59
	118.02	31.98	66.89	0.00	0.0574	9.83	432.4	372.68	0.0669	547.5	9.854	20.76	11.80	1.59
	119.00	31.93	66.87	0.00	0.0578	9.90	435.6	375.51	0.0654	525.6	9.461	19.94	11.18	1.59
	120.01	31.98	66.87	0.00	0.0575	9.83	432.5	372.95	0.0664	535.0	9.631	20.30	11.45	1.59
	121.03	31.97	66.91	0.00	0.0573	9.82	431.9	372.17	0.0672	548.9	9.880	20.81	11.83	1.59
	122.01	32.04	66.87	0.00	0.0574	9.84	432.9	373.35	0.0664	541.4	9.744	20.54	11.63	1.59
