Jul 28 2015 at 10:16:40
Frequency: 1.00Hz.
CO2
Zero:  Value:0.95  Date:18 Mar 2005	 at 07:22:33	
Span:  Value:1.00  Date:18 Mar 2005	 at 07:25:09	
H2O
Zero:  Value:0.71  Date:18 Mar 2005	 at 07:52:31	
Span:  Value:0.99  Date:18 Mar 2005	 at 11:44:01	
	Relative Time	Temperature	Pressure	Aux Input	CO2 Absorptance	CO2 mmol/m3	CO2 mg/m3	CO2 umol/mol	H2O Absorptance	H2O mmol/m3	H2O g/m3	H2O mmol/mol	H2O(°C)	Cooler Voltage
	0.87	22.53	67.65	0.00	0.0630	11.03	485.4	400.85	0.0407	266.7	4.800	9.69	0.91	1.55
	1.97	22.53	67.65	-0.00	0.0630	11.05	486.1	401.50	0.0409	271.7	4.891	9.87	1.17	1.55
	2.89	22.51	67.65	-0.00	0.0630	11.04	485.6	400.99	0.0417	280.8	5.054	10.20	1.63	1.55
	3.88	22.51	67.62	0.00	0.0629	11.03	485.5	401.10	0.0417	280.0	5.040	10.18	1.59	1.55
	4.88	22.49	67.65	-0.00	0.0630	11.03	485.3	400.77	0.0416	278.3	5.010	10.11	1.51	1.55
	5.88	22.51	67.65	0.00	0.0628	11.02	485.0	400.50	0.0418	282.1	5.079	10.25	1.70	1.55
	6.96	22.53	67.62	0.00	0.0630	11.01	484.4	400.23	0.0410	275.5	4.959	10.02	1.37	1.55
	7.91	22.51	67.65	-0.00	0.0627	10.98	483.2	399.05	0.0411	275.1	4.952	10.00	1.34	1.55
	8.89	22.55	67.65	-0.00	0.0627	10.97	482.8	398.76	0.0411	275.5	4.959	10.01	1.37	1.55
	9.89	22.55	67.65	-0.00	0.0627	10.95	482.0	398.08	0.0410	274.2	4.936	9.97	1.30	1.55
	10.89	22.57	67.65	0.00	0.0627	10.97	482.8	398.79	0.0407	272.3	4.902	9.90	1.21	1.55
	11.89	22.58	67.65	-0.00	0.0626	10.96	482.3	398.36	0.0408	273.0	4.913	9.92	1.24	1.55
	12.89	22.58	67.65	-0.00	0.0627	10.97	482.7	398.72	0.0410	274.4	4.940	9.97	1.31	1.55
	13.90	22.60	67.63	-0.00	0.0627	10.97	482.6	398.81	0.0411	274.7	4.945	9.99	1.33	1.55
	14.90	22.60	67.65	-0.00	0.0627	10.97	482.8	398.79	0.0407	271.7	4.891	9.88	1.18	1.55
	15.90	22.62	67.65	0.00	0.0627	10.97	482.8	398.87	0.0407	271.0	4.878	9.85	1.14	1.55
	16.89	22.62	67.65	-0.00	0.0626	10.95	482.0	398.14	0.0414	276.0	4.967	10.03	1.39	1.55
	17.89	22.63	67.68	-0.00	0.0625	10.93	481.0	397.27	0.0418	280.4	5.046	10.19	1.61	1.55
	18.89	22.63	67.65	-0.00	0.0624	10.92	480.5	396.94	0.0422	283.9	5.109	10.32	1.79	1.55
	19.87	22.67	67.65	0.00	0.0623	10.87	478.4	395.25	0.0418	279.1	5.025	10.15	1.56	1.55
	20.87	22.65	67.65	0.00	0.0622	10.88	478.6	395.40	0.0415	278.2	5.008	10.11	1.51	1.55
	21.90	22.65	67.65	0.00	0.0625	10.90	479.6	396.27	0.0417	280.1	5.043	10.18	1.60	1.55
	22.89	22.65	67.64	-0.00	0.0625	10.92	480.5	397.04	0.0434	293.0	5.273	10.65	2.23	1.55
	23.88	22.65	67.65	0.00	0.0625	10.94	481.3	397.64	0.0437	299.2	5.385	10.88	2.53	1.55
	24.88	22.67	67.65	0.00	0.0625	10.90	479.7	396.33	0.0434	300.3	5.406	10.92	2.58	1.55
	25.90	22.67	67.63	-0.00	0.0623	10.90	479.7	396.47	0.0432	293.9	5.291	10.69	2.28	1.55
	26.88	22.65	67.65	0.00	0.0623	10.90	479.5	396.12	0.0434	294.4	5.299	10.70	2.30	1.55
	27.86	22.67	67.68	0.00	0.0624	10.88	478.8	395.48	0.0444	302.8	5.450	11.00	2.70	1.55
	28.89	22.67	67.65	0.00	0.0624	10.91	480.0	396.62	0.0440	301.8	5.432	10.97	2.65	1.55
	29.89	22.67	67.65	-0.00	0.0624	10.90	479.5	396.16	0.0440	300.7	5.413	10.93	2.60	1.55
	30.89	22.67	67.65	0.00	0.0622	10.89	479.2	395.92	0.0441	302.4	5.443	10.99	2.68	1.55
	31.89	22.67	67.63	0.00	0.0622	10.85	477.6	394.73	0.0442	303.2	5.458	11.03	2.71	1.55
	32.90	22.65	67.65	-0.00	0.0623	10.86	477.9	394.84	0.0437	297.5	5.355	10.82	2.45	1.55
	33.96	22.69	67.65	-0.00	0.0621	10.85	477.2	394.32	0.0438	298.6	5.375	10.86	2.50	1.55
	34.88	22.70	67.65	0.00	0.0622	10.85	477.3	394.43	0.0442	300.8	5.414	10.94	2.60	1.55
	35.90	22.70	67.65	-0.00	0.0622	10.86	477.9	394.88	0.0438	299.5	5.392	10.89	2.54	1.55
	36.89	22.72	67.65	-0.00	0.0621	10.85	477.5	394.60	0.0446	306.3	5.514	11.14	2.86	1.55
	37.88	22.72	67.65	0.00	0.0622	10.86	477.8	394.84	0.0444	305.7	5.502	11.11	2.83	1.55
	38.88	22.72	67.65	0.00	0.0622	10.84	477.0	394.16	0.0446	306.1	5.509	11.13	2.85	1.55
	39.89	22.76	67.65	-0.00	0.0620	10.82	475.9	393.35	0.0448	308.0	5.545	11.20	2.94	1.55
	40.89	22.72	67.63	-0.00	0.0620	10.82	476.3	393.72	0.0450	308.1	5.545	11.21	2.94	1.55
	41.89	22.76	67.65	0.00	0.0621	10.84	477.2	394.38	0.0453	310.6	5.591	11.30	3.06	1.55
	42.88	22.79	67.65	0.00	0.0620	10.83	476.5	393.84	0.0457	318.4	5.730	11.58	3.41	1.55
	43.88	22.79	67.65	-0.00	0.0621	10.85	477.3	394.56	0.0465	326.7	5.881	11.88	3.78	1.55
	44.90	22.77	67.65	-0.00	0.0621	10.82	476.1	393.53	0.0471	329.7	5.934	11.99	3.90	1.55
	45.88	22.77	67.65	-0.00	0.0619	10.80	475.0	392.65	0.0475	331.7	5.971	12.06	3.99	1.55
	46.88	22.75	67.65	0.00	0.0620	10.80	475.4	392.87	0.0483	340.2	6.123	12.37	4.35	1.55
	47.88	22.79	67.65	0.00	0.0619	10.80	475.2	392.75	0.0488	347.0	6.246	12.62	4.64	1.55
	48.89	22.79	67.67	0.00	0.0619	10.79	474.8	392.31	0.0480	338.7	6.097	12.32	4.29	1.55
	49.89	22.79	67.62	0.00	0.0619	10.81	475.7	393.38	0.0481	338.0	6.084	12.30	4.26	1.55
	50.87	22.81	67.65	0.00	0.0619	10.79	474.7	392.44	0.0490	347.6	6.257	12.64	4.66	1.55
	51.89	22.80	67.65	0.00	0.0619	10.79	474.9	392.54	0.0489	346.2	6.232	12.59	4.60	1.55
	52.95	22.81	67.63	0.00	0.0619	10.79	474.9	392.69	0.0485	344.4	6.199	12.53	4.53	1.55
	53.90	22.81	67.65	-0.00	0.0618	10.79	474.6	392.35	0.0483	342.1	6.158	12.44	4.43	1.55
	54.88	22.81	67.65	-0.00	0.0619	10.76	473.6	391.51	0.0491	351.3	6.323	12.78	4.81	1.55
	55.86	22.82	67.65	0.00	0.0618	10.78	474.2	391.97	0.0489	351.3	6.324	12.78	4.81	1.55
	56.96	22.82	67.65	-0.00	0.0619	10.78	474.3	392.07	0.0491	347.2	6.250	12.63	4.65	1.55
	57.89	22.80	67.63	-0.00	0.0618	10.77	473.9	391.89	0.0494	353.5	6.363	12.86	4.90	1.55
	58.91	22.84	67.65	-0.00	0.0617	10.76	473.5	391.45	0.0500	360.2	6.483	13.10	5.17	1.55
	59.89	22.82	67.65	-0.00	0.0617	10.74	472.7	390.80	0.0507	364.8	6.566	13.27	5.35	1.55
	60.89	22.84	67.65	0.00	0.0616	10.74	472.6	390.70	0.0505	363.9	6.550	13.24	5.32	1.55
	61.88	22.84	67.65	-0.00	0.0617	10.76	473.4	391.35	0.0504	361.8	6.513	13.16	5.24	1.55
	62.88	22.84	67.65	0.00	0.0616	10.71	471.2	389.56	0.0512	373.6	6.725	13.59	5.70	1.55
	63.90	22.84	67.65	-0.00	0.0617	10.73	472.1	390.28	0.0507	367.7	6.618	13.37	5.47	1.55
	64.88	22.84	67.65	0.00	0.0617	10.74	472.5	390.64	0.0509	367.8	6.621	13.38	5.47	1.55
	65.88	22.88	67.65	0.00	0.0616	10.74	472.5	390.67	0.0511	369.8	6.656	13.45	5.55	1.55
	66.89	22.88	67.65	0.00	0.0616	10.73	472.0	390.26	0.0511	368.7	6.637	13.41	5.51	1.55
	67.88	22.88	67.65	0.00	0.0615	10.71	471.2	389.61	0.0511	369.4	6.650	13.44	5.54	1.55
	68.95	22.86	67.63	0.00	0.0615	10.72	471.6	389.99	0.0519	377.3	6.792	13.73	5.84	1.55
	69.90	22.88	67.65	-0.00	0.0615	10.69	470.5	389.00	0.0518	375.4	6.757	13.66	5.77	1.55
	70.89	22.87	67.68	0.00	0.0616	10.72	471.8	389.94	0.0517	375.7	6.762	13.66	5.78	1.55
	71.90	22.89	67.63	-0.00	0.0615	10.71	471.3	389.83	0.0520	378.8	6.818	13.79	5.90	1.55
	72.90	22.89	67.65	-0.00	0.0615	10.69	470.3	388.89	0.0523	380.8	6.855	13.86	5.98	1.55
	73.88	22.89	67.60	0.00	0.0615	10.69	470.6	389.40	0.0526	381.5	6.867	13.89	6.00	1.55
	74.90	22.89	67.65	-0.00	0.0615	10.70	470.8	389.26	0.0526	384.8	6.926	14.00	6.13	1.55
	75.89	22.91	67.65	-0.00	0.0614	10.69	470.5	389.09	0.0525	384.5	6.921	13.99	6.12	1.55
	76.88	22.91	67.65	0.00	0.0615	10.70	470.7	389.25	0.0529	387.2	6.970	14.09	6.22	1.55
	77.89	22.93	67.68	-0.00	0.0614	10.69	470.4	388.84	0.0530	388.2	6.987	14.12	6.26	1.55
	78.87	22.91	67.65	0.00	0.0613	10.67	469.6	388.36	0.0534	392.7	7.069	14.29	6.42	1.55
	79.97	22.93	67.65	-0.00	0.0614	10.68	469.7	388.47	0.0531	389.7	7.015	14.18	6.31	1.55
	80.89	22.93	67.65	-0.00	0.0614	10.69	470.2	388.86	0.0529	388.3	6.989	14.13	6.26	1.55
	81.90	22.93	67.65	-0.00	0.0615	10.68	470.0	388.72	0.0530	387.8	6.981	14.11	6.24	1.55
	82.88	22.93	67.65	-0.00	0.0614	10.67	469.4	388.21	0.0535	392.6	7.067	14.29	6.42	1.55
	83.90	22.95	67.68	-0.00	0.0613	10.65	468.5	387.34	0.0527	389.4	7.009	14.16	6.30	1.55
	84.88	22.97	67.65	0.00	0.0613	10.67	469.5	388.36	0.0533	394.5	7.101	14.36	6.49	1.55
	85.88	22.95	67.68	0.00	0.0614	10.66	469.1	387.82	0.0537	394.5	7.101	14.35	6.49	1.55
	86.89	22.93	67.62	0.00	0.0613	10.66	468.9	387.89	0.0539	399.2	7.185	14.53	6.66	1.55
	87.89	22.95	67.65	-0.00	0.0613	10.66	469.1	387.97	0.0537	396.4	7.135	14.42	6.56	1.55
	88.89	22.96	67.65	0.00	0.0614	10.67	469.6	388.40	0.0540	398.3	7.169	14.49	6.63	1.55
	89.87	22.96	67.65	0.00	0.0613	10.66	468.9	387.81	0.0542	400.4	7.208	14.57	6.71	1.55
	90.89	22.96	67.65	0.00	0.0613	10.64	468.2	387.24	0.0546	404.4	7.279	14.72	6.85	1.55
	91.88	22.94	67.65	-0.00	0.0613	10.65	468.6	387.54	0.0547	405.9	7.307	14.77	6.91	1.55
	92.87	22.98	67.65	0.00	0.0613	10.64	468.2	387.25	0.0544	403.3	7.260	14.68	6.81	1.55
	93.90	22.98	67.65	-0.00	0.0612	10.63	467.9	386.99	0.0548	407.2	7.330	14.82	6.95	1.55
	94.89	23.00	67.65	-0.00	0.0612	10.62	467.4	386.62	0.0551	409.8	7.377	14.92	7.05	1.55
	95.89	23.00	67.65	0.00	0.0612	10.63	467.8	386.96	0.0552	411.2	7.402	14.97	7.10	1.55
	96.89	23.00	67.65	-0.00	0.0612	10.63	467.8	386.96	0.0554	414.4	7.459	15.08	7.21	1.55
	97.89	23.02	67.65	0.00	0.0612	10.63	467.7	386.85	0.0557	416.8	7.503	15.17	7.30	1.55
	98.89	23.02	67.65	-0.00	0.0612	10.61	466.8	386.19	0.0553	411.5	7.407	14.98	7.11	1.55
	99.87	23.01	67.65	0.00	0.0612	10.63	467.8	387.00	0.0554	414.3	7.457	15.08	7.21	1.55
	100.89	23.01	67.65	0.00	0.0611	10.61	467.0	386.36	0.0554	414.4	7.459	15.08	7.21	1.55
	101.87	23.00	67.65	0.00	0.0611	10.61	466.9	386.19	0.0555	415.2	7.474	15.11	7.24	1.55
	102.88	23.01	67.60	0.00	0.0611	10.62	467.1	386.67	0.0558	416.8	7.502	15.18	7.29	1.55
	103.86	23.03	67.65	0.00	0.0611	10.61	466.9	386.28	0.0557	415.9	7.486	15.14	7.26	1.55
	104.88	23.03	67.65	0.00	0.0612	10.61	467.1	386.39	0.0556	415.2	7.474	15.11	7.24	1.55
	105.86	23.05	67.65	0.00	0.0610	10.60	466.6	386.04	0.0558	417.4	7.514	15.20	7.32	1.55
	106.89	23.05	67.63	-0.00	0.0611	10.61	466.7	386.25	0.0559	419.0	7.543	15.26	7.37	1.55
	107.89	23.05	67.65	-0.00	0.0611	10.59	466.1	385.64	0.0561	419.7	7.555	15.28	7.40	1.55
	108.90	23.03	67.65	-0.00	0.0611	10.60	466.5	385.96	0.0563	422.0	7.596	15.36	7.48	1.55
	109.90	23.07	67.67	-0.00	0.0610	10.59	466.0	385.46	0.0559	419.4	7.549	15.26	7.39	1.55
	110.87	23.05	67.65	0.00	0.0611	10.60	466.6	386.02	0.0565	424.1	7.634	15.44	7.55	1.55
	111.88	23.05	67.65	0.00	0.0610	10.60	466.4	385.88	0.0562	422.6	7.606	15.38	7.50	1.55
	112.87	23.05	67.65	0.00	0.0610	10.60	466.2	385.71	0.0564	424.3	7.637	15.44	7.56	1.55
	113.88	23.06	67.63	0.00	0.0609	10.57	465.2	384.99	0.0567	427.3	7.691	15.56	7.66	1.55
	114.94	23.07	67.62	0.00	0.0610	10.58	465.7	385.45	0.0569	428.6	7.716	15.61	7.71	1.55
	115.88	23.07	67.65	0.00	0.0609	10.57	465.1	384.83	0.0569	429.5	7.731	15.64	7.74	1.55
	116.88	23.10	67.65	0.00	0.0609	10.57	465.2	384.96	0.0574	434.7	7.825	15.83	7.92	1.55
	117.87	23.08	67.62	0.00	0.0609	10.57	465.0	384.93	0.0571	432.9	7.792	15.77	7.85	1.55
	118.89	23.10	67.63	-0.00	0.0609	10.56	464.7	384.62	0.0572	432.5	7.784	15.75	7.84	1.55
	119.89	23.10	67.65	-0.00	0.0609	10.58	465.3	385.03	0.0570	430.6	7.751	15.68	7.78	1.55
	120.89	23.10	67.65	0.00	0.0609	10.58	465.4	385.10	0.0573	433.3	7.799	15.77	7.87	1.55
	121.90	23.10	67.65	-0.00	0.0609	10.57	464.9	384.73	0.0577	438.2	7.888	15.96	8.03	1.55
