Jul 28 2015 at 10:13:51
Frequency: 1.00Hz.
CO2
Zero:  Value:0.95  Date:18 Mar 2005	 at 07:22:33	
Span:  Value:1.00  Date:18 Mar 2005	 at 07:25:09	
H2O
Zero:  Value:0.71  Date:18 Mar 2005	 at 07:52:31	
Span:  Value:0.99  Date:18 Mar 2005	 at 11:44:01	
	Relative Time	Temperature	Pressure	Aux Input	CO2 Absorptance	CO2 mmol/m3	CO2 mg/m3	CO2 umol/mol	H2O Absorptance	H2O mmol/m3	H2O g/m3	H2O mmol/mol	H2O(°C)	Cooler Voltage
	0.62	21.91	67.65	-0.00	0.0615	10.72	471.5	388.56	0.0448	309.2	5.565	11.21	2.95	1.55
	1.53	21.91	67.65	0.00	0.0614	10.69	470.6	387.80	0.0446	308.2	5.548	11.18	2.91	1.55
	2.56	21.89	67.65	-0.00	0.0614	10.69	470.3	387.55	0.0450	308.9	5.560	11.20	2.94	1.55
	3.54	21.89	67.63	-0.00	0.0613	10.68	469.8	387.30	0.0451	312.9	5.633	11.35	3.12	1.55
	4.55	21.89	67.65	-0.00	0.0615	10.70	470.8	387.97	0.0446	307.8	5.541	11.16	2.89	1.55
	5.54	21.89	67.65	0.00	0.0614	10.69	470.2	387.49	0.0445	306.0	5.508	11.10	2.81	1.55
	6.52	21.89	67.65	0.00	0.0614	10.68	469.8	387.16	0.0446	307.4	5.533	11.15	2.87	1.55
	7.55	21.89	67.65	0.00	0.0611	10.62	467.3	385.08	0.0448	309.3	5.568	11.22	2.96	1.55
	8.53	21.89	67.65	0.00	0.0614	10.68	470.0	387.31	0.0442	303.4	5.462	11.00	2.69	1.55
	9.56	21.91	67.65	0.00	0.0614	10.68	470.0	387.31	0.0447	305.8	5.504	11.09	2.80	1.55
	10.55	21.93	67.65	-0.00	0.0613	10.67	469.3	386.81	0.0449	311.7	5.611	11.30	3.07	1.55
	11.54	21.93	67.62	0.00	0.0613	10.66	469.0	386.73	0.0459	318.1	5.726	11.54	3.36	1.55
	12.54	21.93	67.65	0.00	0.0613	10.67	469.4	386.86	0.0457	317.3	5.712	11.51	3.32	1.55
	13.56	21.95	67.65	-0.00	0.0613	10.67	469.6	387.08	0.0457	316.6	5.699	11.48	3.29	1.55
	14.54	21.95	67.65	0.00	0.0613	10.67	469.3	386.81	0.0460	319.2	5.746	11.58	3.41	1.55
	15.54	21.94	67.65	0.00	0.0613	10.67	469.4	386.84	0.0451	311.7	5.611	11.30	3.07	1.55
	16.55	21.93	67.65	-0.00	0.0614	10.67	469.3	386.80	0.0452	312.2	5.619	11.32	3.09	1.55
	17.55	21.95	67.65	-0.00	0.0614	10.68	470.0	387.39	0.0461	316.8	5.703	11.49	3.30	1.55
	18.55	21.96	67.67	-0.00	0.0614	10.68	469.9	387.25	0.0461	320.6	5.771	11.62	3.47	1.55
	19.55	21.98	67.63	-0.00	0.0613	10.66	469.1	386.80	0.0463	322.2	5.800	11.69	3.54	1.55
	20.56	21.98	67.68	-0.00	0.0614	10.66	469.2	386.65	0.0465	323.9	5.830	11.74	3.61	1.55
	21.54	21.98	67.65	-0.00	0.0613	10.65	468.7	386.33	0.0466	325.0	5.850	11.79	3.66	1.55
	22.54	21.98	67.65	0.00	0.0610	10.58	465.7	383.86	0.0486	346.7	6.241	12.58	4.58	1.55
	23.54	21.96	67.65	0.00	0.0611	10.59	466.0	384.08	0.0483	345.3	6.215	12.52	4.52	1.55
	24.55	22.00	67.65	-0.00	0.0613	10.64	468.2	385.97	0.0469	329.9	5.939	11.97	3.88	1.55
	25.55	22.00	67.65	-0.00	0.0613	10.65	468.6	386.29	0.0473	331.7	5.971	12.03	3.95	1.55
	26.55	22.00	67.65	-0.00	0.0613	10.64	468.0	385.82	0.0476	335.5	6.038	12.17	4.11	1.55
	27.53	22.00	67.65	0.00	0.0612	10.64	468.1	385.90	0.0487	340.6	6.131	12.35	4.33	1.55
	28.55	22.00	67.65	-0.00	0.0612	10.65	468.5	386.25	0.0484	342.7	6.169	12.43	4.42	1.55
	29.55	22.00	67.65	-0.00	0.0611	10.61	467.0	385.02	0.0488	347.2	6.250	12.59	4.60	1.55
	30.55	21.98	67.65	-0.00	0.0611	10.58	465.4	383.62	0.0489	349.5	6.291	12.68	4.70	1.55
	31.54	22.00	67.65	-0.00	0.0610	10.58	465.4	383.65	0.0496	353.7	6.367	12.83	4.87	1.55
	32.56	22.01	67.65	-0.00	0.0610	10.59	465.8	384.02	0.0488	348.2	6.268	12.63	4.65	1.55
	33.52	21.99	67.63	0.00	0.0611	10.61	466.7	384.89	0.0489	346.3	6.233	12.56	4.57	1.55
	34.54	22.03	67.65	0.00	0.0612	10.61	467.0	385.04	0.0500	357.6	6.437	12.97	5.03	1.55
	35.55	22.03	67.65	-0.00	0.0609	10.58	465.7	383.98	0.0511	366.6	6.598	13.30	5.38	1.55
	36.54	22.05	67.65	0.00	0.0610	10.58	465.7	383.97	0.0506	366.1	6.590	13.28	5.37	1.55
	37.53	22.03	67.63	0.00	0.0609	10.58	465.6	384.02	0.0514	369.8	6.657	13.42	5.51	1.55
	38.53	22.05	67.65	0.00	0.0609	10.58	465.5	383.81	0.0512	372.0	6.695	13.49	5.60	1.55
	39.55	22.05	67.65	-0.00	0.0608	10.53	463.5	382.17	0.0519	374.8	6.746	13.60	5.70	1.55
	40.53	22.03	67.60	0.00	0.0607	10.55	464.3	383.11	0.0519	374.4	6.739	13.59	5.69	1.55
	41.54	22.01	67.65	0.00	0.0606	10.52	462.7	381.44	0.0524	382.6	6.886	13.88	6.00	1.55
	42.54	22.03	67.65	0.00	0.0607	10.54	463.5	382.18	0.0522	379.9	6.838	13.78	5.90	1.55
	43.54	22.03	67.65	0.00	0.0607	10.49	461.7	380.65	0.0523	388.7	6.997	14.10	6.23	1.55
	44.55	22.05	67.60	0.00	0.0609	10.56	464.6	383.33	0.0521	377.2	6.790	13.70	5.80	1.55
	45.55	22.05	67.65	0.00	0.0609	10.56	464.7	383.16	0.0517	375.2	6.754	13.61	5.72	1.55
	46.55	22.08	67.65	0.00	0.0609	10.55	464.2	382.78	0.0509	369.8	6.657	13.42	5.51	1.55
	47.55	22.07	67.65	-0.00	0.0610	10.58	465.5	383.86	0.0509	363.8	6.548	13.20	5.28	1.55
	48.56	22.08	67.65	-0.00	0.0608	10.54	463.6	382.29	0.0531	388.4	6.990	14.09	6.22	1.55
	49.55	22.08	67.65	-0.00	0.0607	10.52	462.8	381.61	0.0532	389.7	7.014	14.14	6.27	1.55
	50.53	22.12	67.65	0.00	0.0607	10.53	463.1	381.97	0.0537	390.3	7.026	14.16	6.30	1.55
	51.54	22.12	67.63	-0.00	0.0606	10.51	462.6	381.64	0.0543	400.9	7.217	14.55	6.68	1.55
	52.53	22.10	67.65	0.00	0.0606	10.50	462.1	381.05	0.0542	401.0	7.218	14.55	6.69	1.55
	53.62	22.13	67.65	0.00	0.0605	10.48	461.1	380.32	0.0545	404.4	7.279	14.67	6.81	1.55
	54.54	22.12	67.63	-0.00	0.0605	10.47	460.9	380.24	0.0545	408.1	7.345	14.81	6.94	1.55
	55.55	22.12	67.65	-0.00	0.0605	10.52	462.9	381.77	0.0548	395.7	7.122	14.36	6.49	1.55
	56.55	22.12	67.65	0.00	0.0607	10.51	462.5	381.45	0.0542	403.5	7.262	14.64	6.78	1.55
	57.56	22.08	67.63	-0.00	0.0608	10.52	462.9	381.82	0.0535	398.3	7.169	14.45	6.59	1.55
	58.55	22.10	67.65	-0.00	0.0606	10.52	462.7	381.55	0.0549	400.4	7.207	14.53	6.66	1.55
	59.56	22.08	67.63	0.00	0.0605	10.47	460.8	380.13	0.0553	416.2	7.491	15.11	7.23	1.55
	60.54	22.08	67.65	0.00	0.0606	10.48	461.1	380.25	0.0560	418.8	7.538	15.19	7.32	1.55
	61.56	22.06	67.62	-0.00	0.0605	10.47	460.7	380.02	0.0568	425.9	7.666	15.46	7.56	1.55
	62.54	22.10	67.65	0.00	0.0605	10.46	460.4	379.66	0.0559	424.9	7.649	15.42	7.53	1.55
	63.52	22.12	67.63	0.00	0.0605	10.47	460.7	380.06	0.0565	421.8	7.592	15.31	7.42	1.55
	64.54	22.12	67.65	0.00	0.0605	10.48	461.3	380.40	0.0559	419.3	7.548	15.22	7.34	1.55
	65.54	22.13	67.65	0.00	0.0605	10.48	461.1	380.27	0.0557	416.0	7.488	15.10	7.22	1.55
	66.55	22.13	67.65	-0.00	0.0605	10.48	461.2	380.37	0.0557	419.1	7.545	15.21	7.33	1.55
	67.53	22.15	67.68	-0.00	0.0605	10.49	461.5	380.54	0.0546	403.8	7.269	14.65	6.79	1.55
	68.53	22.13	67.62	0.00	0.0604	10.45	459.7	379.32	0.0575	434.8	7.827	15.79	7.87	1.55
	69.53	22.15	67.65	0.00	0.0603	10.44	459.3	378.84	0.0574	435.0	7.831	15.79	7.88	1.55
	70.56	22.12	67.62	-0.00	0.0603	10.42	458.4	378.21	0.0575	433.0	7.794	15.72	7.81	1.55
	71.54	22.17	67.65	0.00	0.0602	10.43	459.0	378.60	0.0571	431.2	7.762	15.65	7.75	1.55
	72.56	22.17	67.65	-0.00	0.0602	10.43	458.7	378.38	0.0573	434.0	7.811	15.75	7.84	1.55
	73.54	22.15	67.65	0.00	0.0603	10.42	458.7	378.29	0.0572	434.8	7.826	15.78	7.87	1.55
	74.55	22.19	67.65	0.00	0.0601	10.43	458.8	378.45	0.0585	434.9	7.828	15.78	7.88	1.55
	75.55	22.18	67.65	-0.00	0.0602	10.41	458.2	378.00	0.0579	441.5	7.947	16.02	8.10	1.55
	76.55	22.18	67.62	0.00	0.0602	10.43	459.0	378.79	0.0576	437.3	7.871	15.88	7.96	1.55
	77.55	22.21	67.65	-0.00	0.0603	10.42	458.7	378.37	0.0577	438.3	7.889	15.91	7.99	1.55
	78.56	22.20	67.65	-0.00	0.0603	10.42	458.4	378.14	0.0577	436.7	7.860	15.85	7.94	1.55
	79.53	22.20	67.65	0.00	0.0603	10.43	458.9	378.55	0.0575	434.9	7.828	15.79	7.88	1.55
	80.53	22.20	67.65	0.00	0.0603	10.43	458.7	378.44	0.0576	435.7	7.842	15.81	7.90	1.55
	81.53	22.22	67.65	0.00	0.0604	10.44	459.6	379.14	0.0575	435.0	7.830	15.79	7.88	1.55
	82.56	22.24	67.65	-0.00	0.0602	10.44	459.5	379.13	0.0579	439.5	7.910	15.95	8.03	1.55
	83.55	22.24	67.65	0.00	0.0602	10.42	458.5	378.31	0.0580	441.7	7.950	16.03	8.11	1.55
	84.54	22.24	67.62	0.00	0.0602	10.43	458.9	378.74	0.0579	440.2	7.923	15.99	8.06	1.55
	85.54	22.22	67.62	0.00	0.0601	10.40	457.5	377.57	0.0580	441.0	7.937	16.01	8.08	1.55
	86.55	22.25	67.65	-0.00	0.0602	10.41	458.2	378.04	0.0581	442.9	7.972	16.08	8.15	1.55
	87.53	22.24	67.65	0.00	0.0602	10.40	457.7	377.59	0.0587	446.4	8.036	16.21	8.26	1.55
	88.53	22.24	67.65	0.00	0.0602	10.41	457.9	377.75	0.0585	447.5	8.054	16.24	8.30	1.55
	89.55	22.26	67.65	-0.00	0.0601	10.38	456.9	376.98	0.0591	452.4	8.143	16.42	8.46	1.55
	90.54	22.24	67.62	0.00	0.0601	10.39	457.1	377.32	0.0590	451.1	8.120	16.38	8.42	1.55
	91.54	22.27	67.63	-0.00	0.0601	10.39	457.0	377.22	0.0590	451.9	8.135	16.41	8.45	1.55
	92.54	22.27	67.65	-0.00	0.0600	10.38	456.7	376.88	0.0590	452.4	8.142	16.42	8.46	1.55
	93.54	22.25	67.65	-0.00	0.0600	10.39	457.1	377.13	0.0591	454.8	8.186	16.51	8.54	1.55
	94.55	22.27	67.65	-0.00	0.0600	10.35	455.5	375.87	0.0595	457.1	8.229	16.60	8.62	1.55
	95.55	22.27	67.62	-0.00	0.0600	10.36	455.9	376.34	0.0599	460.6	8.290	16.73	8.73	1.55
	96.56	22.25	67.65	-0.00	0.0599	10.36	455.7	375.98	0.0600	463.2	8.337	16.82	8.81	1.55
	97.61	22.29	67.65	0.00	0.0599	10.36	455.8	376.12	0.0599	461.2	8.301	16.75	8.75	1.55
	98.53	22.25	67.63	0.00	0.0599	10.35	455.4	375.91	0.0599	461.7	8.310	16.77	8.76	1.55
	99.54	22.25	67.65	0.00	0.0599	10.34	454.9	375.33	0.0600	463.3	8.339	16.82	8.81	1.55
	100.53	22.25	67.65	0.00	0.0598	10.33	454.7	375.13	0.0604	468.9	8.440	17.02	8.99	1.55
	101.54	22.25	67.62	0.00	0.0599	10.33	454.7	375.31	0.0602	466.0	8.388	16.92	8.90	1.55
	102.52	22.25	67.63	0.00	0.0599	10.34	455.1	375.63	0.0603	465.4	8.378	16.90	8.88	1.55
	103.54	22.25	67.65	0.00	0.0599	10.35	455.3	375.69	0.0602	466.0	8.389	16.92	8.90	1.55
	104.54	22.24	67.65	0.00	0.0598	10.34	454.9	375.37	0.0601	463.6	8.344	16.83	8.82	1.55
	105.55	22.25	67.65	0.00	0.0599	10.34	454.8	375.27	0.0600	464.1	8.354	16.85	8.84	1.55
	106.55	22.27	67.68	0.00	0.0598	10.32	453.9	374.37	0.0601	464.2	8.355	16.84	8.84	1.55
	107.56	22.25	67.65	-0.00	0.0598	10.32	454.0	374.61	0.0605	468.0	8.424	16.99	8.96	1.55
	108.62	22.25	67.62	-0.00	0.0597	10.32	454.0	374.73	0.0604	467.1	8.408	16.97	8.93	1.55
	109.53	22.27	67.62	0.00	0.0598	10.32	454.0	374.75	0.0609	471.4	8.485	17.12	9.07	1.55
	110.56	22.27	67.63	-0.00	0.0597	10.31	453.5	374.35	0.0609	474.3	8.538	17.23	9.16	1.55
	111.54	22.29	67.65	0.00	0.0596	10.30	453.0	373.83	0.0612	473.7	8.527	17.20	9.14	1.55
	112.56	22.27	67.60	-0.00	0.0597	10.31	453.7	374.70	0.0614	477.1	8.587	17.33	9.25	1.55
	113.54	22.29	67.62	-0.00	0.0596	10.27	452.0	373.17	0.0617	481.3	8.664	17.48	9.38	1.55
	114.54	22.31	67.65	0.00	0.0596	10.28	452.4	373.36	0.0618	482.0	8.676	17.50	9.40	1.55
	115.53	22.30	67.63	0.00	0.0597	10.29	452.8	373.80	0.0616	481.0	8.658	17.47	9.37	1.55
	116.61	22.31	67.63	0.00	0.0595	10.28	452.4	373.45	0.0614	479.0	8.622	17.40	9.31	1.55
	117.55	22.32	67.65	-0.00	0.0597	10.29	452.6	373.50	0.0616	479.8	8.637	17.42	9.34	1.55
	118.53	22.30	67.63	0.00	0.0596	10.28	452.3	373.42	0.0619	484.2	8.715	17.59	9.47	1.55
	119.53	22.34	67.63	0.00	0.0594	10.25	451.2	372.47	0.0623	489.3	8.808	17.77	9.63	1.55
	120.56	22.34	67.68	-0.00	0.0595	10.26	451.4	372.44	0.0620	484.8	8.726	17.60	9.49	1.55
	121.56	22.34	67.65	-0.00	0.0596	10.26	451.5	372.67	0.0622	486.7	8.760	17.67	9.55	1.55
	122.54	22.32	67.62	-0.00	0.0596	10.27	452.0	373.21	0.0619	484.7	8.725	17.61	9.49	1.55
