Jul 28 2015 at 12:55:40
Frequency: 1.00Hz.
CO2
Zero:  Value:0.95  Date:18 Mar 2005	 at 07:22:33	
Span:  Value:1.00  Date:18 Mar 2005	 at 07:25:09	
H2O
Zero:  Value:0.71  Date:18 Mar 2005	 at 07:52:31	
Span:  Value:0.99  Date:18 Mar 2005	 at 11:44:01	
	Relative Time	Temperature	Pressure	Aux Input	CO2 Absorptance	CO2 mmol/m3	CO2 mg/m3	CO2 umol/mol	H2O Absorptance	H2O mmol/m3	H2O g/m3	H2O mmol/mol	H2O(°C)	Cooler Voltage
	0.30	31.52	67.70	-0.00	0.0620	10.80	475.1	404.04	0.0457	317.5	5.715	11.88	3.78	1.62
	1.29	31.52	67.70	0.00	0.0619	10.81	475.6	404.38	0.0459	319.3	5.747	11.95	3.86	1.62
	2.29	31.50	67.70	-0.00	0.0617	10.73	472.3	401.55	0.0457	317.3	5.711	11.87	3.77	1.62
	3.29	31.51	67.70	0.00	0.0617	10.76	473.2	402.38	0.0456	314.7	5.665	11.77	3.66	1.62
	4.29	31.47	67.73	0.00	0.0617	10.75	473.0	401.99	0.0454	314.5	5.661	11.76	3.65	1.62
	5.32	31.49	67.72	0.00	0.0615	10.71	471.1	400.45	0.0465	320.6	5.771	11.99	3.92	1.62
	6.30	31.49	67.73	-0.00	0.0618	10.76	473.4	402.35	0.0464	322.4	5.803	12.06	4.00	1.62
	7.32	31.49	67.72	-0.00	0.0619	10.78	474.2	403.05	0.0471	330.6	5.952	12.37	4.36	1.62
	8.30	31.53	67.70	0.00	0.0618	10.76	473.3	402.49	0.0472	330.7	5.952	12.37	4.36	1.62
	9.30	31.56	67.72	0.00	0.0618	10.76	473.5	402.55	0.0471	331.1	5.960	12.38	4.38	1.62
	10.30	31.56	67.70	0.00	0.0615	10.71	471.3	400.80	0.0469	326.8	5.882	12.23	4.19	1.62
	11.29	31.65	67.70	0.00	0.0618	10.77	473.9	403.13	0.0476	334.2	6.016	12.51	4.52	1.62
	12.29	31.70	67.70	0.00	0.0618	10.77	474.0	403.32	0.0474	334.3	6.018	12.52	4.53	1.62
	13.29	31.68	67.70	0.00	0.0617	10.74	472.8	402.21	0.0473	332.5	5.986	12.45	4.45	1.62
	14.29	31.73	67.73	0.00	0.0615	10.71	471.1	400.67	0.0467	328.3	5.909	12.28	4.27	1.62
	15.29	31.73	67.73	0.00	0.0616	10.72	471.6	401.15	0.0465	325.1	5.852	12.17	4.13	1.62
	16.29	31.73	67.70	0.00	0.0617	10.74	472.4	401.97	0.0464	323.3	5.819	12.10	4.05	1.62
	17.30	31.74	67.72	-0.00	0.0616	10.74	472.4	401.87	0.0463	323.3	5.819	12.10	4.05	1.62
	18.28	31.79	67.68	0.00	0.0614	10.69	470.1	400.29	0.0461	321.4	5.785	12.04	3.97	1.62
	19.30	31.82	67.73	-0.00	0.0617	10.76	473.3	402.72	0.0463	322.6	5.808	12.08	4.02	1.62
	20.30	31.86	67.70	0.00	0.0616	10.74	472.7	402.42	0.0463	323.0	5.815	12.10	4.04	1.62
	21.30	31.83	67.70	0.00	0.0615	10.68	469.8	399.84	0.0462	320.5	5.770	12.00	3.93	1.62
	22.31	31.82	67.70	0.00	0.0616	10.73	472.3	402.02	0.0463	322.6	5.807	12.08	4.02	1.62
	23.29	31.86	67.70	0.00	0.0616	10.72	471.5	401.39	0.0463	322.7	5.808	12.09	4.03	1.62
	24.30	31.86	67.70	0.00	0.0616	10.71	471.2	401.08	0.0463	322.3	5.801	12.07	4.01	1.62
	25.29	31.85	67.73	0.00	0.0616	10.72	471.5	401.23	0.0461	321.3	5.784	12.03	3.97	1.62
	26.36	31.81	67.75	-0.00	0.0616	10.73	472.0	401.44	0.0464	322.4	5.803	12.07	4.01	1.62
	27.30	31.81	67.70	-0.00	0.0617	10.75	473.2	402.74	0.0467	326.4	5.875	12.22	4.19	1.62
	28.28	31.84	67.70	0.00	0.0617	10.73	472.1	401.82	0.0466	325.0	5.849	12.17	4.13	1.62
	29.31	31.80	67.72	0.00	0.0618	10.75	472.9	402.40	0.0466	325.8	5.865	12.20	4.16	1.62
	30.31	31.75	67.70	-0.00	0.0617	10.76	473.4	402.81	0.0465	325.7	5.862	12.19	4.15	1.62
	31.29	31.73	67.70	0.00	0.0617	10.73	472.2	401.80	0.0465	323.9	5.830	12.13	4.07	1.62
	32.29	31.75	67.72	0.00	0.0617	10.71	471.2	400.85	0.0464	323.1	5.815	12.09	4.04	1.62
	33.29	31.79	67.72	-0.00	0.0618	10.76	473.4	402.79	0.0463	323.1	5.816	12.09	4.04	1.62
	34.29	31.86	67.71	0.00	0.0615	10.73	472.0	401.77	0.0467	326.1	5.870	12.21	4.18	1.62
	35.29	31.85	67.68	0.00	0.0616	10.72	471.8	401.77	0.0466	325.1	5.852	12.18	4.14	1.62
	36.30	31.87	67.70	0.00	0.0615	10.72	471.9	401.70	0.0466	327.1	5.888	12.25	4.22	1.62
	37.28	31.96	67.71	0.00	0.0616	10.74	472.4	402.23	0.0464	324.4	5.839	12.15	4.11	1.62
	38.36	31.93	67.72	0.00	0.0617	10.74	472.4	402.14	0.0465	324.1	5.835	12.14	4.10	1.62
	39.28	31.90	67.70	0.00	0.0617	10.74	472.4	402.19	0.0464	324.3	5.837	12.15	4.10	1.62
	40.37	31.92	67.70	-0.00	0.0617	10.74	472.8	402.53	0.0466	325.5	5.858	12.19	4.15	1.62
	41.29	31.97	67.70	0.00	0.0617	10.73	472.0	401.93	0.0468	327.0	5.887	12.25	4.23	1.62
	42.31	32.04	67.70	0.00	0.0616	10.71	471.4	401.55	0.0468	327.4	5.893	12.27	4.24	1.62
	43.31	32.01	67.70	-0.00	0.0617	10.74	472.4	402.39	0.0469	328.4	5.911	12.31	4.29	1.62
	44.30	31.98	67.72	-0.00	0.0615	10.71	471.3	401.20	0.0467	326.3	5.874	12.22	4.19	1.62
	45.30	31.99	67.72	-0.00	0.0617	10.73	472.1	401.92	0.0467	326.1	5.870	12.22	4.19	1.62
	46.30	31.93	67.70	-0.00	0.0616	10.73	472.3	402.12	0.0465	325.0	5.851	12.18	4.14	1.62
	47.30	31.89	67.70	0.00	0.0616	10.72	471.9	401.71	0.0464	324.0	5.832	12.14	4.09	1.62
	48.28	31.89	67.70	0.00	0.0615	10.71	471.2	401.19	0.0463	323.4	5.822	12.12	4.06	1.62
	49.28	31.92	67.70	0.00	0.0615	10.68	470.0	400.24	0.0462	321.3	5.783	12.04	3.97	1.62
	50.28	31.89	67.68	0.00	0.0615	10.68	470.1	400.39	0.0465	323.3	5.819	12.12	4.06	1.62
	51.29	31.89	67.70	-0.00	0.0615	10.69	470.3	400.39	0.0468	325.1	5.851	12.18	4.13	1.62
	52.29	31.85	67.71	-0.00	0.0615	10.70	470.8	400.71	0.0467	326.9	5.884	12.24	4.21	1.62
	53.29	31.83	67.70	0.00	0.0615	10.69	470.5	400.50	0.0467	327.0	5.886	12.25	4.22	1.62
	54.29	31.85	67.72	-0.00	0.0614	10.70	470.7	400.51	0.0468	327.7	5.899	12.27	4.25	1.62
	55.29	31.88	67.72	0.00	0.0615	10.70	470.8	400.67	0.0469	327.7	5.899	12.27	4.25	1.62
	56.32	31.91	67.70	-0.00	0.0616	10.72	471.5	401.43	0.0471	330.6	5.951	12.39	4.38	1.62
	57.30	31.93	67.72	-0.00	0.0616	10.72	471.7	401.54	0.0471	329.4	5.928	12.34	4.32	1.62
	58.30	31.99	67.70	-0.00	0.0616	10.73	472.1	402.06	0.0474	334.1	6.014	12.52	4.53	1.62
	59.28	32.05	67.73	0.00	0.0616	10.72	471.8	401.70	0.0473	332.0	5.976	12.44	4.44	1.62
	60.30	32.09	67.72	-0.00	0.0615	10.70	470.8	400.94	0.0471	330.0	5.939	12.36	4.36	1.62
	61.28	32.09	67.75	0.00	0.0617	10.71	471.3	401.19	0.0472	330.7	5.953	12.39	4.39	1.62
	62.29	32.09	67.70	0.00	0.0617	10.74	472.7	402.66	0.0472	330.7	5.953	12.40	4.39	1.62
	63.29	32.05	67.70	0.00	0.0616	10.71	471.2	401.36	0.0470	329.6	5.933	12.35	4.34	1.62
	64.30	32.06	67.70	0.00	0.0616	10.73	472.1	402.21	0.0470	330.6	5.952	12.39	4.39	1.62
	65.29	32.05	67.73	0.00	0.0616	10.73	472.1	402.00	0.0471	331.0	5.958	12.40	4.40	1.62
	66.28	32.09	67.70	0.00	0.0615	10.71	471.4	401.62	0.0470	329.2	5.926	12.34	4.32	1.62
	67.28	32.14	67.70	0.00	0.0614	10.67	469.7	400.18	0.0468	327.5	5.896	12.28	4.25	1.62
	68.30	32.13	67.68	-0.00	0.0615	10.70	470.8	401.26	0.0458	319.3	5.747	11.97	3.89	1.62
	69.30	32.18	67.70	0.00	0.0616	10.71	471.2	401.56	0.0462	320.1	5.762	12.00	3.93	1.62
	70.28	32.20	67.70	0.00	0.0615	10.70	470.8	401.23	0.0465	324.6	5.843	12.17	4.13	1.62
	71.36	32.20	67.72	0.00	0.0615	10.69	470.6	400.90	0.0466	325.5	5.859	12.20	4.17	1.62
	72.31	32.22	67.72	0.00	0.0614	10.68	469.9	400.32	0.0468	326.7	5.880	12.25	4.22	1.62
	73.31	32.20	67.70	0.00	0.0614	10.70	470.7	401.13	0.0467	326.0	5.868	12.23	4.19	1.62
	74.30	32.17	67.72	-0.00	0.0614	10.66	469.1	399.57	0.0467	325.7	5.862	12.21	4.17	1.62
	75.30	32.16	67.70	0.00	0.0615	10.70	470.6	401.00	0.0466	326.0	5.867	12.22	4.19	1.62
	76.36	32.10	67.70	0.00	0.0615	10.70	471.0	401.28	0.0466	325.7	5.862	12.21	4.17	1.62
	77.28	32.12	67.70	0.00	0.0614	10.67	469.5	399.96	0.0465	323.9	5.831	12.14	4.10	1.62
	78.30	32.12	67.72	0.00	0.0614	10.67	469.7	400.01	0.0465	324.5	5.842	12.16	4.12	1.62
	79.28	32.08	67.73	0.00	0.0615	10.70	470.8	400.95	0.0466	325.3	5.856	12.19	4.15	1.62
	80.29	32.08	67.70	0.00	0.0613	10.66	469.2	399.72	0.0463	323.3	5.819	12.12	4.07	1.62
	81.29	31.99	67.72	-0.00	0.0614	10.69	470.2	400.32	0.0465	324.1	5.834	12.14	4.10	1.62
	82.29	32.01	67.70	0.00	0.0614	10.68	469.8	400.10	0.0463	323.5	5.824	12.12	4.07	1.62
	83.29	32.01	67.75	-0.00	0.0613	10.66	469.1	399.20	0.0463	323.7	5.827	12.12	4.08	1.62
	84.30	31.99	67.70	0.00	0.0614	10.67	469.6	399.93	0.0465	324.3	5.837	12.15	4.11	1.62
	85.29	31.93	67.70	-0.00	0.0615	10.70	470.8	400.88	0.0465	325.7	5.863	12.20	4.16	1.62
	86.30	31.91	67.70	-0.00	0.0615	10.69	470.3	400.42	0.0467	326.2	5.871	12.22	4.18	1.62
	87.30	31.90	67.68	0.00	0.0615	10.71	471.0	401.18	0.0469	328.2	5.908	12.30	4.27	1.62
	88.28	31.92	67.72	0.00	0.0615	10.71	471.4	401.25	0.0468	327.4	5.893	12.26	4.24	1.62
	89.30	31.95	67.72	0.00	0.0615	10.69	470.5	400.48	0.0468	327.8	5.900	12.28	4.26	1.62
	90.28	31.97	67.70	0.00	0.0615	10.70	470.7	400.87	0.0469	327.8	5.901	12.28	4.26	1.62
	91.31	31.99	67.72	-0.00	0.0614	10.71	471.1	401.08	0.0468	327.9	5.902	12.28	4.26	1.62
	92.29	32.03	67.70	0.00	0.0614	10.70	470.6	400.83	0.0467	326.5	5.877	12.24	4.20	1.62
	93.29	32.06	67.72	0.00	0.0615	10.71	471.5	401.47	0.0466	326.0	5.869	12.22	4.18	1.62
	94.30	32.06	67.70	-0.00	0.0615	10.69	470.5	400.75	0.0465	325.0	5.849	12.18	4.14	1.62
	95.29	32.06	67.72	-0.00	0.0614	10.68	469.9	400.15	0.0465	324.9	5.849	12.17	4.14	1.62
	96.31	31.99	67.72	-0.00	0.0615	10.69	470.2	400.28	0.0465	324.5	5.841	12.16	4.11	1.62
	97.28	31.99	67.70	0.00	0.0614	10.67	469.5	399.85	0.0465	323.6	5.824	12.13	4.07	1.62
	98.30	31.95	67.70	0.00	0.0614	10.68	469.9	400.18	0.0465	324.3	5.838	12.15	4.11	1.62
	99.30	31.84	67.70	-0.00	0.0615	10.69	470.5	400.47	0.0467	325.8	5.865	12.20	4.17	1.62
	100.28	31.87	67.71	0.00	0.0615	10.70	470.9	400.83	0.0466	325.8	5.864	12.20	4.17	1.62
	101.29	31.85	67.73	-0.00	0.0615	10.70	471.0	400.80	0.0466	325.2	5.854	12.18	4.14	1.62
	102.28	31.90	67.75	0.00	0.0615	10.71	471.1	400.84	0.0466	324.9	5.848	12.16	4.13	1.62
	103.29	31.90	67.70	0.00	0.0614	10.66	469.1	399.37	0.0465	323.5	5.822	12.12	4.06	1.62
	104.27	31.91	67.68	0.00	0.0614	10.68	470.0	400.30	0.0465	324.7	5.845	12.17	4.12	1.62
	105.32	31.95	67.72	-0.00	0.0615	10.68	469.9	400.04	0.0468	327.5	5.895	12.27	4.24	1.62
	106.36	32.05	67.70	0.00	0.0614	10.69	470.3	400.56	0.0469	329.1	5.924	12.33	4.32	1.62
	107.31	32.01	67.75	-0.00	0.0614	10.68	470.0	399.97	0.0468	328.0	5.905	12.28	4.27	1.62
	108.30	32.07	67.70	-0.00	0.0614	10.67	469.5	399.94	0.0469	327.6	5.897	12.28	4.26	1.62
	109.31	32.09	67.71	-0.00	0.0615	10.71	471.1	401.34	0.0473	331.9	5.975	12.44	4.44	1.62
	110.29	32.09	67.70	0.00	0.0614	10.68	470.1	400.51	0.0471	329.9	5.938	12.37	4.35	1.62
	111.31	32.12	67.68	-0.00	0.0614	10.68	469.8	400.43	0.0470	330.0	5.940	12.37	4.36	1.62
	112.29	32.07	67.68	0.00	0.0612	10.63	467.9	398.75	0.0468	326.9	5.885	12.26	4.22	1.62
	113.27	32.09	67.72	0.00	0.0612	10.64	468.2	398.77	0.0467	326.3	5.873	12.23	4.20	1.62
	114.30	32.14	67.72	-0.00	0.0613	10.64	468.1	398.71	0.0467	326.3	5.874	12.23	4.20	1.62
	115.35	32.11	67.70	0.00	0.0613	10.65	468.4	399.08	0.0468	326.4	5.875	12.24	4.20	1.62
	116.28	32.13	67.70	0.00	0.0614	10.68	469.8	400.27	0.0469	328.8	5.919	12.33	4.31	1.62
	117.28	32.15	67.70	-0.00	0.0613	10.67	469.3	399.91	0.0470	329.9	5.938	12.37	4.36	1.62
	118.28	32.17	67.70	0.00	0.0613	10.67	469.5	400.09	0.0470	330.9	5.957	12.41	4.40	1.62
	119.36	32.22	67.72	0.00	0.0615	10.69	470.4	400.75	0.0472	331.2	5.962	12.42	4.42	1.62
	120.31	32.20	67.70	-0.00	0.0614	10.68	470.0	400.52	0.0471	331.8	5.973	12.44	4.44	1.62
	121.29	32.17	67.70	0.00	0.0614	10.67	469.4	399.97	0.0469	327.0	5.886	12.26	4.23	1.62
	122.37	32.20	67.75	0.00	0.0614	10.68	469.9	400.18	0.0472	331.0	5.957	12.40	4.41	1.62
	123.29	32.22	67.70	0.00	0.0614	10.69	470.3	400.84	0.0474	332.9	5.993	12.49	4.49	1.62
