Jul 28 2015 at 16:30:27
Frequency: 1.00Hz.
CO2
Zero:  Value:0.95  Date:18 Mar 2005	 at 07:22:33	
Span:  Value:1.00  Date:18 Mar 2005	 at 07:25:09	
H2O
Zero:  Value:0.71  Date:18 Mar 2005	 at 07:52:31	
Span:  Value:0.99  Date:18 Mar 2005	 at 11:44:01	
	Relative Time	Temperature	Pressure	Aux Input	CO2 Absorptance	CO2 mmol/m3	CO2 mg/m3	CO2 umol/mol	H2O Absorptance	H2O mmol/m3	H2O g/m3	H2O mmol/mol	H2O(°C)	Cooler Voltage
	0.59	31.41	66.87	-0.00	0.0619	10.82	476.0	409.68	0.0397	253.9	4.569	9.61	0.64	1.59
	1.65	31.43	66.92	0.00	0.0616	10.80	475.2	408.71	0.0401	263.4	4.741	9.97	1.15	1.59
	2.60	31.41	66.89	-0.00	0.0615	10.75	473.0	406.96	0.0422	286.0	5.148	10.83	2.30	1.59
	3.60	31.43	66.87	-0.00	0.0616	10.74	472.6	406.73	0.0416	282.4	5.084	10.69	2.13	1.59
	4.60	31.45	66.89	0.00	0.0616	10.76	473.3	407.23	0.0419	283.0	5.094	10.71	2.16	1.59
	5.58	31.51	66.92	0.00	0.0615	10.74	472.6	406.54	0.0418	281.5	5.068	10.66	2.09	1.59
	6.58	31.51	66.92	0.00	0.0616	10.75	473.0	406.90	0.0417	277.3	4.991	10.50	1.87	1.59
	7.60	31.58	66.87	0.00	0.0615	10.74	472.4	406.74	0.0421	286.3	5.154	10.85	2.33	1.59
	8.60	31.58	66.89	0.00	0.0614	10.72	471.8	406.13	0.0413	279.1	5.024	10.57	1.97	1.59
	9.58	31.57	66.89	0.00	0.0614	10.73	472.1	406.36	0.0411	275.6	4.960	10.44	1.79	1.59
	10.58	31.61	66.89	0.00	0.0614	10.73	472.0	406.30	0.0412	277.0	4.986	10.49	1.86	1.59
	11.59	31.57	66.89	0.00	0.0614	10.71	471.2	405.57	0.0415	278.2	5.007	10.53	1.92	1.59
	12.59	31.57	66.89	0.00	0.0614	10.71	471.4	405.78	0.0419	282.9	5.091	10.71	2.15	1.59
	13.59	31.59	66.87	-0.00	0.0614	10.70	470.6	405.24	0.0421	284.5	5.120	10.78	2.23	1.59
	14.59	31.64	66.90	0.00	0.0613	10.68	470.0	404.63	0.0427	289.6	5.213	10.97	2.49	1.59
	15.58	31.57	66.89	0.00	0.0614	10.72	471.6	405.90	0.0453	311.6	5.608	11.80	3.52	1.59
	16.57	31.58	66.89	0.00	0.0613	10.71	471.0	405.44	0.0445	307.3	5.531	11.64	3.32	1.59
	17.58	31.64	66.89	0.00	0.0612	10.68	469.7	404.39	0.0438	304.9	5.488	11.55	3.21	1.59
	18.58	31.57	66.86	-0.00	0.0612	10.62	467.1	402.24	0.0435	292.9	5.272	11.10	2.64	1.59
	19.58	31.62	66.90	0.00	0.0611	10.63	467.9	402.75	0.0429	294.1	5.294	11.14	2.70	1.59
	20.59	31.60	66.89	0.00	0.0613	10.67	469.6	404.22	0.0436	297.7	5.359	11.28	2.88	1.59
	21.59	31.57	66.87	0.00	0.0608	10.60	466.3	401.51	0.0429	294.4	5.299	11.15	2.72	1.59
	22.59	31.57	66.90	0.00	0.0613	10.69	470.4	404.90	0.0434	297.4	5.353	11.26	2.86	1.59
	23.59	31.56	66.88	0.00	0.0612	10.66	469.2	404.00	0.0435	297.0	5.347	11.25	2.84	1.59
	24.59	31.59	66.89	0.00	0.0611	10.63	467.7	402.61	0.0436	297.3	5.351	11.26	2.85	1.59
	25.58	31.59	66.90	0.00	0.0613	10.67	469.6	404.20	0.0441	302.0	5.436	11.44	3.08	1.59
	26.60	31.61	66.89	-0.00	0.0612	10.66	469.0	403.76	0.0442	303.5	5.463	11.50	3.15	1.59
	27.58	31.59	66.89	0.00	0.0612	10.65	468.6	403.35	0.0445	305.8	5.505	11.58	3.26	1.59
	28.58	31.59	66.87	0.00	0.0609	10.60	466.2	401.48	0.0445	306.2	5.511	11.60	3.27	1.59
	29.59	31.57	66.87	0.00	0.0613	10.68	469.9	404.62	0.0451	313.0	5.634	11.86	3.58	1.59
	30.59	31.60	66.89	-0.00	0.0613	10.67	469.7	404.32	0.0452	312.0	5.615	11.82	3.54	1.59
	31.59	31.59	66.89	-0.00	0.0612	10.67	469.4	404.06	0.0456	315.5	5.680	11.95	3.70	1.59
	32.67	31.62	66.88	0.00	0.0613	10.69	470.3	404.95	0.0463	321.6	5.788	12.18	3.97	1.59
	33.57	31.59	66.89	0.00	0.0613	10.69	470.2	404.71	0.0468	328.0	5.904	12.42	4.25	1.59
	34.59	31.62	66.89	0.00	0.0612	10.68	469.9	404.53	0.0466	327.6	5.897	12.41	4.23	1.59
	35.58	31.59	66.87	0.00	0.0613	10.68	470.0	404.74	0.0467	327.1	5.887	12.39	4.21	1.59
	36.60	31.61	66.87	0.00	0.0612	10.69	470.2	404.93	0.0468	328.7	5.916	12.45	4.28	1.59
	37.60	31.60	66.92	0.00	0.0612	10.67	469.7	404.18	0.0468	326.8	5.883	12.37	4.20	1.59
	38.59	31.61	66.87	-0.00	0.0612	10.67	469.4	404.20	0.0469	329.6	5.932	12.49	4.32	1.59
	39.61	31.61	66.89	-0.00	0.0613	10.70	470.7	405.21	0.0472	332.8	5.990	12.61	4.46	1.59
	40.59	31.61	66.89	-0.00	0.0613	10.70	470.6	405.15	0.0469	331.7	5.970	12.56	4.41	1.59
	41.59	31.56	66.90	-0.00	0.0613	10.69	470.2	404.71	0.0475	334.8	6.027	12.68	4.54	1.59
	42.57	31.63	66.87	0.00	0.0612	10.68	470.1	404.83	0.0470	332.6	5.987	12.60	4.45	1.59
	43.59	31.61	66.87	-0.00	0.0612	10.68	469.8	404.58	0.0475	334.9	6.029	12.69	4.55	1.59
	44.59	31.61	66.89	0.00	0.0612	10.68	469.9	404.50	0.0477	337.7	6.079	12.79	4.67	1.59
	45.58	31.59	66.92	0.00	0.0613	10.69	470.4	404.82	0.0482	341.7	6.150	12.94	4.83	1.59
	46.58	31.59	66.89	0.00	0.0613	10.69	470.4	404.88	0.0483	346.2	6.232	13.11	5.02	1.59
	47.60	31.62	66.89	0.00	0.0613	10.69	470.2	404.80	0.0485	345.3	6.216	13.08	4.99	1.59
	48.59	31.66	66.89	-0.00	0.0612	10.68	469.8	404.55	0.0487	346.9	6.244	13.14	5.05	1.59
	49.59	31.65	66.89	-0.00	0.0612	10.67	469.6	404.29	0.0486	345.4	6.217	13.08	4.99	1.59
	50.65	31.64	66.89	0.00	0.0611	10.66	469.3	403.99	0.0488	348.8	6.278	13.21	5.13	1.59
	51.59	31.63	66.89	-0.00	0.0612	10.66	469.0	403.77	0.0493	351.2	6.321	13.30	5.23	1.59
	52.57	31.63	66.92	0.00	0.0612	10.67	469.6	404.12	0.0492	353.4	6.360	13.38	5.32	1.59
	53.60	31.64	66.89	0.00	0.0611	10.66	469.2	403.99	0.0492	354.0	6.371	13.41	5.34	1.59
	54.59	31.66	66.87	0.00	0.0611	10.64	468.0	403.11	0.0495	354.4	6.380	13.43	5.36	1.59
	55.58	31.63	66.89	0.00	0.0611	10.65	468.4	403.27	0.0496	355.4	6.397	13.46	5.40	1.59
	56.58	31.60	66.89	0.00	0.0611	10.66	469.1	403.83	0.0499	362.7	6.528	13.74	5.69	1.59
	57.66	31.63	66.87	0.00	0.0612	10.67	469.3	404.20	0.0508	369.2	6.645	13.99	5.95	1.59
	58.58	31.66	66.87	0.00	0.0612	10.66	468.9	403.87	0.0510	368.0	6.624	13.95	5.90	1.59
	59.59	31.65	66.89	-0.00	0.0612	10.67	469.4	404.17	0.0512	374.4	6.740	14.18	6.15	1.59
	60.59	31.63	66.89	0.00	0.0612	10.66	469.0	403.76	0.0519	378.7	6.816	14.34	6.32	1.59
	61.59	31.66	66.92	-0.00	0.0612	10.66	469.2	403.80	0.0520	377.3	6.792	14.29	6.27	1.59
	62.57	31.63	66.89	0.00	0.0612	10.66	468.9	403.64	0.0516	376.6	6.779	14.27	6.24	1.59
	63.59	31.66	66.89	0.00	0.0612	10.68	470.1	404.73	0.0521	381.1	6.861	14.44	6.41	1.59
	64.58	31.63	66.90	-0.00	0.0612	10.66	469.0	403.72	0.0516	375.4	6.757	14.22	6.19	1.59
	65.57	31.63	66.89	0.00	0.0612	10.68	469.7	404.39	0.0526	381.9	6.875	14.47	6.44	1.59
	66.60	31.61	66.89	-0.00	0.0612	10.66	469.0	403.75	0.0522	381.6	6.868	14.45	6.43	1.59
	67.58	31.62	66.90	0.00	0.0612	10.65	468.6	403.40	0.0520	378.8	6.818	14.35	6.32	1.59
	68.59	31.63	66.89	-0.00	0.0613	10.68	470.1	404.70	0.0535	395.7	7.123	14.99	6.96	1.59
	69.58	31.66	66.87	0.00	0.0611	10.67	469.5	404.38	0.0531	392.5	7.066	14.88	6.84	1.59
	70.58	31.66	66.92	0.00	0.0611	10.65	468.7	403.44	0.0532	391.3	7.043	14.82	6.79	1.59
	71.59	31.62	66.94	-0.00	0.0611	10.65	468.6	403.13	0.0537	401.5	7.228	15.20	7.17	1.59
	72.60	31.63	66.87	-0.00	0.0611	10.65	468.6	403.55	0.0532	393.3	7.079	14.90	6.87	1.59
	73.58	31.63	66.89	0.00	0.0611	10.66	468.9	403.70	0.0536	398.4	7.172	15.09	7.06	1.59
	74.58	31.64	66.90	-0.00	0.0611	10.66	469.1	403.85	0.0538	398.7	7.177	15.10	7.07	1.59
	75.58	31.63	66.87	0.00	0.0612	10.66	469.1	403.99	0.0535	396.5	7.137	15.03	6.99	1.59
	76.58	31.63	66.87	0.00	0.0612	10.66	469.1	404.04	0.0535	396.9	7.144	15.04	7.00	1.59
	77.59	31.62	66.89	-0.00	0.0612	10.66	469.0	403.75	0.0536	394.8	7.107	14.96	6.92	1.59
	78.59	31.66	66.87	0.00	0.0612	10.65	468.6	403.58	0.0541	400.5	7.210	15.18	7.13	1.59
	79.58	31.62	66.92	0.00	0.0612	10.66	468.9	403.50	0.0544	406.7	7.320	15.40	7.36	1.59
	80.57	31.65	66.90	0.00	0.0612	10.67	469.6	404.28	0.0556	421.6	7.589	15.97	7.88	1.59
	81.59	31.63	66.89	0.00	0.0612	10.67	469.4	404.14	0.0558	419.5	7.550	15.89	7.81	1.59
	82.57	31.63	66.89	0.00	0.0611	10.66	469.2	403.90	0.0555	417.6	7.516	15.82	7.74	1.59
	83.57	31.63	66.92	0.00	0.0612	10.67	469.3	403.85	0.0557	417.9	7.522	15.82	7.75	1.59
	84.58	31.63	66.92	0.00	0.0611	10.65	468.7	403.40	0.0552	411.0	7.398	15.56	7.51	1.59
	85.60	31.66	66.90	0.00	0.0611	10.65	468.6	403.42	0.0553	420.7	7.573	15.94	7.85	1.59
	86.58	31.65	66.90	0.00	0.0611	10.64	468.2	403.10	0.0546	405.8	7.304	15.37	7.32	1.59
	87.58	31.66	66.92	0.00	0.0612	10.67	469.6	404.15	0.0566	427.6	7.697	16.19	8.09	1.59
	88.59	31.60	66.92	0.00	0.0612	10.66	469.1	403.69	0.0565	429.5	7.731	16.26	8.15	1.59
	89.59	31.65	66.89	-0.00	0.0612	10.67	469.6	404.29	0.0571	430.8	7.754	16.32	8.20	1.59
	90.57	31.65	66.92	0.00	0.0612	10.68	469.7	404.26	0.0568	431.8	7.772	16.35	8.23	1.59
	91.60	31.64	66.92	-0.00	0.0612	10.67	469.4	403.94	0.0568	432.8	7.790	16.39	8.27	1.59
	92.59	31.61	66.90	-0.00	0.0613	10.68	470.0	404.59	0.0576	437.3	7.872	16.56	8.42	1.59
	93.57	31.60	66.87	0.00	0.0612	10.68	469.9	404.60	0.0573	438.3	7.890	16.61	8.45	1.59
	94.60	31.63	66.89	-0.00	0.0612	10.66	468.8	403.65	0.0563	416.4	7.495	15.77	7.70	1.59
	95.58	31.61	66.89	0.00	0.0613	10.67	469.5	404.21	0.0575	437.4	7.873	16.57	8.42	1.59
	96.56	31.67	66.92	0.00	0.0612	10.68	469.9	404.40	0.0573	437.2	7.870	16.56	8.42	1.59
	97.59	31.61	66.86	-0.00	0.0613	10.69	470.3	405.08	0.0576	440.4	7.927	16.69	8.52	1.59
	98.58	31.62	66.90	0.00	0.0613	10.68	470.0	404.62	0.0575	435.5	7.838	16.49	8.36	1.59
	99.58	31.66	66.87	-0.00	0.0612	10.67	469.6	404.49	0.0568	434.4	7.820	16.46	8.33	1.59
	100.57	31.63	66.91	0.00	0.0612	10.68	470.0	404.49	0.0571	434.0	7.813	16.44	8.31	1.59
	101.59	31.61	66.87	0.00	0.0613	10.68	469.7	404.53	0.0572	433.6	7.804	16.43	8.29	1.59
	102.60	31.63	66.92	-0.00	0.0613	10.68	469.8	404.31	0.0576	439.1	7.904	16.63	8.48	1.59
	103.58	31.61	66.89	0.00	0.0613	10.69	470.2	404.80	0.0579	440.4	7.928	16.68	8.53	1.59
	104.58	31.61	66.87	0.00	0.0613	10.68	470.0	404.74	0.0582	445.0	8.009	16.86	8.68	1.59
	105.60	31.64	66.92	-0.00	0.0613	10.69	470.3	404.75	0.0584	445.9	8.026	16.89	8.71	1.59
	106.59	31.64	66.89	0.00	0.0614	10.69	470.5	405.07	0.0589	451.8	8.133	17.12	8.90	1.59
	107.59	31.64	66.90	-0.00	0.0613	10.70	470.7	405.20	0.0590	455.4	8.197	17.25	9.02	1.59
	108.58	31.61	66.92	0.00	0.0614	10.70	470.8	405.15	0.0589	452.5	8.145	17.13	8.92	1.59
	109.59	31.61	66.89	0.00	0.0613	10.70	470.6	405.14	0.0586	451.5	8.127	17.10	8.89	1.59
	110.57	31.61	66.89	0.00	0.0612	10.69	470.3	404.89	0.0585	448.5	8.073	16.99	8.79	1.59
	111.57	31.66	66.92	0.00	0.0613	10.70	470.6	405.03	0.0585	450.7	8.112	17.07	8.87	1.59
	112.59	31.62	66.89	-0.00	0.0613	10.68	470.1	404.71	0.0584	447.2	8.050	16.94	8.75	1.59
	113.60	31.66	66.90	0.00	0.0613	10.70	470.7	405.23	0.0582	445.9	8.026	16.89	8.71	1.59
	114.60	31.61	66.92	0.00	0.0613	10.70	470.7	405.08	0.0583	446.0	8.028	16.89	8.71	1.59
	115.58	31.64	66.90	0.00	0.0613	10.70	470.9	405.38	0.0583	447.2	8.049	16.94	8.75	1.59
	116.67	31.62	66.87	-0.00	0.0613	10.69	470.5	405.22	0.0582	446.4	8.036	16.92	8.73	1.59
	117.59	31.61	66.89	-0.00	0.0614	10.71	471.2	405.66	0.0584	447.3	8.052	16.94	8.75	1.59
	118.58	31.63	66.90	0.00	0.0614	10.73	472.1	406.43	0.0591	456.0	8.208	17.27	9.04	1.59
	119.59	31.63	66.90	-0.00	0.0614	10.73	471.9	406.25	0.0591	453.5	8.162	17.18	8.96	1.60
	120.59	31.62	66.89	0.00	0.0614	10.71	471.2	405.67	0.0590	453.1	8.155	17.16	8.94	1.59
