Jul 28 2015 at 16:16:06
Frequency: 1.00Hz.
CO2
Zero:  Value:0.95  Date:18 Mar 2005	 at 07:22:33	
Span:  Value:1.00  Date:18 Mar 2005	 at 07:25:09	
H2O
Zero:  Value:0.71  Date:18 Mar 2005	 at 07:52:31	
Span:  Value:0.99  Date:18 Mar 2005	 at 11:44:01	
	Relative Time	Temperature	Pressure	Aux Input	CO2 Absorptance	CO2 mmol/m3	CO2 mg/m3	CO2 umol/mol	H2O Absorptance	H2O mmol/m3	H2O g/m3	H2O mmol/mol	H2O(°C)	Cooler Voltage
	0.80	32.61	66.89	-0.00	0.0614	10.69	470.4	406.26	0.0504	364.0	6.551	13.83	5.79	1.59
	1.79	32.58	66.87	-0.00	0.0611	10.65	468.7	404.95	0.0529	389.9	7.017	14.82	6.78	1.59
	2.78	32.58	66.87	0.00	0.0607	10.58	465.6	402.26	0.0539	395.3	7.115	15.03	6.99	1.59
	3.79	32.58	66.89	-0.00	0.0603	10.48	461.2	398.29	0.0551	410.1	7.383	15.58	7.52	1.59
	4.77	32.61	66.94	0.00	0.0602	10.44	459.4	396.56	0.0562	423.3	7.620	16.08	7.99	1.59
	5.77	32.60	66.87	0.00	0.0603	10.46	460.1	397.56	0.0561	422.5	7.605	16.06	7.96	1.59
	6.79	32.60	66.87	0.00	0.0605	10.49	461.5	398.69	0.0552	418.3	7.529	15.90	7.81	1.59
	7.78	32.65	66.89	-0.00	0.0608	10.56	464.7	401.41	0.0546	407.0	7.325	15.47	7.41	1.59
	8.77	32.62	66.89	0.00	0.0607	10.57	465.2	401.80	0.0536	399.7	7.195	15.19	7.15	1.59
	9.78	32.60	66.87	0.00	0.0608	10.57	465.1	401.83	0.0541	399.6	7.192	15.19	7.14	1.59
	10.76	32.67	66.87	0.00	0.0605	10.52	463.0	400.14	0.0535	396.1	7.130	15.06	7.02	1.59
	11.76	32.65	66.89	0.00	0.0607	10.53	463.5	400.33	0.0538	398.9	7.180	15.16	7.12	1.59
	12.78	32.62	66.87	0.00	0.0605	10.50	461.9	399.14	0.0531	388.4	6.992	14.77	6.73	1.59
	13.78	32.62	66.87	-0.00	0.0607	10.54	463.7	400.65	0.0544	404.1	7.273	15.36	7.31	1.59
	14.79	32.67	66.90	-0.00	0.0606	10.54	463.8	400.67	0.0546	405.9	7.307	15.43	7.38	1.59
	15.80	32.65	66.89	-0.00	0.0605	10.51	462.4	399.46	0.0558	414.1	7.453	15.74	7.67	1.59
	16.80	32.65	66.87	-0.00	0.0604	10.51	462.3	399.49	0.0567	427.8	7.701	16.27	8.15	1.59
	17.77	32.62	66.87	0.00	0.0603	10.46	460.3	397.72	0.0556	418.1	7.525	15.89	7.81	1.59
	18.78	32.65	66.89	0.00	0.0604	10.48	461.0	398.18	0.0559	423.4	7.621	16.09	7.99	1.59
	19.78	32.62	66.87	0.00	0.0604	10.48	461.2	398.53	0.0560	423.7	7.627	16.11	8.00	1.59
	20.78	32.67	66.89	0.00	0.0605	10.49	461.4	398.62	0.0552	410.7	7.393	15.61	7.55	1.59
	21.78	32.65	66.89	0.00	0.0605	10.51	462.6	399.55	0.0566	424.9	7.648	16.15	8.05	1.59
	22.78	32.65	66.89	0.00	0.0603	10.47	460.7	397.97	0.0563	423.1	7.615	16.08	7.98	1.59
	23.77	32.67	66.89	0.00	0.0602	10.46	460.1	397.42	0.0557	421.8	7.592	16.03	7.94	1.59
	24.79	32.67	66.89	0.00	0.0604	10.50	462.1	399.25	0.0583	447.9	8.062	17.02	8.82	1.59
	25.77	32.67	66.89	0.00	0.0603	10.48	461.1	398.35	0.0582	446.6	8.038	16.98	8.78	1.59
	26.79	32.65	66.89	0.00	0.0602	10.42	458.6	396.15	0.0595	459.3	8.267	17.46	9.20	1.59
	27.78	32.67	66.89	-0.00	0.0602	10.43	459.0	396.57	0.0601	466.5	8.396	17.73	9.43	1.59
	28.78	32.67	66.92	0.00	0.0603	10.44	459.3	396.65	0.0594	460.3	8.285	17.49	9.23	1.59
	29.78	32.67	66.87	0.00	0.0601	10.43	459.0	396.71	0.0586	450.4	8.108	17.13	8.91	1.59
	30.86	32.65	66.89	-0.00	0.0600	10.39	457.3	395.04	0.0588	451.0	8.118	17.14	8.93	1.59
	31.84	32.67	66.89	0.00	0.0600	10.40	457.7	395.44	0.0578	445.3	8.016	16.93	8.74	1.59
	32.79	32.67	66.89	-0.00	0.0601	10.43	458.7	396.29	0.0562	425.0	7.650	16.16	8.05	1.59
	33.79	32.65	66.87	0.00	0.0601	10.42	458.3	396.02	0.0561	421.1	7.580	16.01	7.91	1.59
	34.79	32.67	66.87	0.00	0.0603	10.45	459.9	397.42	0.0565	424.1	7.633	16.12	8.02	1.59
	35.79	32.65	66.89	-0.00	0.0601	10.41	457.9	395.53	0.0568	424.7	7.644	16.14	8.04	1.59
	36.78	32.65	66.89	0.00	0.0598	10.36	456.0	393.94	0.0605	465.4	8.377	17.69	9.39	1.59
	37.78	32.67	66.87	0.00	0.0598	10.37	456.2	394.20	0.0605	472.2	8.499	17.95	9.61	1.59
	38.77	32.69	66.89	0.00	0.0598	10.35	455.5	393.50	0.0614	474.0	8.532	18.02	9.67	1.59
	39.78	32.65	66.89	0.00	0.0597	10.34	455.2	393.18	0.0616	480.7	8.653	18.27	9.87	1.59
	40.79	32.69	66.90	-0.00	0.0597	10.32	454.3	392.44	0.0606	481.0	8.659	18.28	9.89	1.59
	41.78	32.67	66.87	-0.00	0.0599	10.37	456.1	394.17	0.0639	504.6	9.083	19.19	10.60	1.59
	42.77	32.69	66.89	0.00	0.0598	10.35	455.5	393.53	0.0642	514.1	9.254	19.54	10.88	1.59
	43.79	32.67	66.89	-0.00	0.0598	10.36	455.9	393.88	0.0626	501.7	9.031	19.07	10.51	1.59
	44.77	32.67	66.87	-0.00	0.0599	10.37	456.1	394.13	0.0613	484.4	8.719	18.42	9.99	1.59
	45.77	32.67	66.87	0.00	0.0596	10.34	454.8	392.98	0.0625	474.4	8.538	18.04	9.68	1.59
	46.80	32.67	66.89	-0.00	0.0597	10.33	454.6	392.69	0.0619	486.7	8.760	18.50	10.06	1.59
	47.78	32.71	66.89	0.00	0.0598	10.33	454.7	392.83	0.0607	472.4	8.503	17.96	9.62	1.59
	48.78	32.69	66.84	0.00	0.0597	10.35	455.6	393.90	0.0626	491.0	8.838	18.68	10.19	1.59
	49.80	32.71	66.89	-0.00	0.0597	10.34	454.8	392.95	0.0628	491.4	8.845	18.68	10.21	1.59
	50.79	32.69	66.87	-0.00	0.0596	10.30	453.1	391.57	0.0638	510.0	9.179	19.39	10.76	1.59
	51.78	32.69	66.89	0.00	0.0597	10.32	454.2	392.34	0.0640	509.7	9.175	19.37	10.75	1.59
	52.79	32.69	66.89	-0.00	0.0595	10.31	453.5	391.81	0.0633	504.3	9.077	19.17	10.59	1.59
	53.77	32.71	66.87	0.00	0.0596	10.30	453.1	391.64	0.0633	504.0	9.073	19.17	10.59	1.59
	54.79	32.69	66.89	-0.00	0.0596	10.31	453.8	392.05	0.0621	494.3	8.897	18.79	10.29	1.59
	55.79	32.71	66.89	0.00	0.0596	10.32	454.2	392.41	0.0633	502.8	9.050	19.11	10.55	1.59
	56.77	32.71	66.89	0.00	0.0595	10.29	452.7	391.09	0.0643	515.2	9.273	19.58	10.91	1.59
	57.77	32.68	66.90	0.00	0.0596	10.30	453.4	391.62	0.0636	506.6	9.118	19.25	10.66	1.59
	58.78	32.69	66.87	-0.00	0.0595	10.28	452.5	391.05	0.0645	513.3	9.240	19.52	10.86	1.59
	59.78	32.71	66.87	0.00	0.0594	10.26	451.4	390.14	0.0650	524.0	9.432	19.93	11.17	1.59
	60.78	32.73	66.87	0.00	0.0594	10.24	450.8	389.62	0.0657	530.8	9.554	20.19	11.37	1.59
	61.79	32.74	66.89	0.00	0.0591	10.20	449.0	387.92	0.0673	551.4	9.924	20.96	11.94	1.59
	62.85	32.74	66.89	0.00	0.0591	10.19	448.2	387.27	0.0677	553.3	9.959	21.04	11.99	1.59
	63.79	32.73	66.89	-0.00	0.0593	10.23	450.3	389.09	0.0653	529.0	9.522	20.11	11.32	1.59
	64.79	32.71	66.87	0.00	0.0594	10.26	451.4	390.13	0.0647	519.7	9.355	19.76	11.05	1.59
	65.79	32.73	66.90	0.00	0.0594	10.27	452.1	390.59	0.0642	511.3	9.204	19.44	10.80	1.59
	66.78	32.71	66.89	-0.00	0.0593	10.25	451.2	389.81	0.0655	521.0	9.379	19.81	11.09	1.59
	67.80	32.69	66.92	-0.00	0.0593	10.23	449.9	388.54	0.0660	531.4	9.564	20.19	11.38	1.59
	68.80	32.70	66.90	-0.00	0.0592	10.21	449.2	388.05	0.0653	533.9	9.610	20.29	11.45	1.59
	69.78	32.71	66.90	0.00	0.0592	10.23	450.0	388.79	0.0654	523.9	9.431	19.91	11.17	1.59
	70.78	32.71	66.89	0.00	0.0593	10.24	450.4	389.09	0.0652	524.5	9.442	19.94	11.19	1.59
	71.79	32.73	66.92	-0.00	0.0592	10.22	449.9	388.57	0.0643	516.6	9.299	19.63	10.96	1.59
	72.77	32.71	66.87	0.00	0.0594	10.25	451.0	389.77	0.0633	503.8	9.068	19.16	10.58	1.59
	73.76	32.73	66.89	0.00	0.0594	10.25	451.1	389.73	0.0644	514.3	9.257	19.55	10.89	1.59
	74.77	32.73	66.89	0.00	0.0592	10.23	450.0	388.80	0.0646	513.5	9.242	19.52	10.87	1.59
	75.77	32.71	66.87	0.00	0.0593	10.23	449.9	388.87	0.0640	510.7	9.193	19.42	10.78	1.59
	76.85	32.71	66.87	0.00	0.0593	10.25	450.8	389.62	0.0641	508.7	9.157	19.35	10.72	1.59
	77.80	32.71	66.89	-0.00	0.0594	10.27	452.0	390.55	0.0635	511.3	9.203	19.44	10.80	1.59
	78.80	32.78	66.89	0.00	0.0594	10.28	452.2	390.81	0.0638	504.9	9.087	19.20	10.61	1.59
	79.78	32.76	66.87	-0.00	0.0595	10.30	453.1	391.64	0.0635	506.0	9.108	19.25	10.65	1.59
	80.79	32.76	66.92	-0.00	0.0595	10.29	452.6	390.92	0.0636	506.8	9.123	19.26	10.67	1.59
	81.78	32.73	66.89	0.00	0.0595	10.30	453.0	391.44	0.0638	506.1	9.109	19.24	10.65	1.59
	82.77	32.69	66.87	0.00	0.0593	10.25	451.1	389.83	0.0650	524.0	9.431	19.92	11.17	1.59
	83.79	32.73	66.87	-0.00	0.0595	10.26	451.6	390.35	0.0614	496.8	8.943	18.89	10.37	1.59
	84.77	32.76	66.89	0.00	0.0595	10.28	452.2	390.78	0.0625	487.9	8.783	18.55	10.10	1.59
	85.78	32.71	66.90	-0.00	0.0594	10.26	451.4	389.95	0.0627	497.7	8.959	18.92	10.40	1.59
	86.78	32.72	66.89	0.00	0.0593	10.26	451.2	389.88	0.0631	495.7	8.922	18.84	10.34	1.59
	87.78	32.73	66.86	-0.00	0.0594	10.26	451.5	390.31	0.0634	500.0	9.000	19.02	10.47	1.59
	88.78	32.77	66.90	0.00	0.0594	10.25	451.1	389.81	0.0636	503.7	9.067	19.15	10.58	1.59
	89.79	32.74	66.89	-0.00	0.0595	10.28	452.3	390.87	0.0630	498.9	8.980	18.97	10.43	1.59
	90.79	32.75	66.85	0.00	0.0597	10.32	453.9	392.46	0.0611	478.1	8.607	18.19	9.80	1.59
	91.79	32.75	66.89	-0.00	0.0596	10.31	453.4	391.79	0.0612	480.7	8.652	18.27	9.88	1.59
	92.77	32.78	66.92	0.00	0.0596	10.32	453.9	392.12	0.0611	477.8	8.600	18.16	9.79	1.59
	93.79	32.74	66.87	0.00	0.0596	10.31	453.6	392.04	0.0602	476.3	8.573	18.11	9.74	1.60
	94.77	32.75	66.87	0.00	0.0596	10.32	454.0	392.41	0.0604	473.9	8.530	18.02	9.67	1.59
	95.77	32.73	66.87	0.00	0.0598	10.35	455.3	393.52	0.0576	443.6	7.984	16.87	8.68	1.59
	96.80	32.78	66.87	-0.00	0.0597	10.35	455.4	393.70	0.0578	437.4	7.873	16.64	8.48	1.59
	97.77	32.77	66.89	0.00	0.0597	10.34	454.9	393.07	0.0599	458.8	8.258	17.44	9.19	1.59
	98.76	32.75	66.89	0.00	0.0597	10.32	454.0	392.34	0.0604	468.9	8.440	17.83	9.51	1.59
	99.79	32.75	66.87	-0.00	0.0596	10.32	454.2	392.63	0.0607	470.9	8.477	17.91	9.57	1.60
	100.78	32.80	66.87	0.00	0.0596	10.31	453.5	392.08	0.0612	478.4	8.611	18.20	9.81	1.59
	101.76	32.75	66.89	0.00	0.0596	10.32	454.3	392.52	0.0615	476.6	8.578	18.12	9.75	1.59
	102.79	32.77	66.89	0.00	0.0596	10.32	453.9	392.20	0.0620	486.6	8.760	18.50	10.06	1.59
	103.86	32.80	66.89	-0.00	0.0596	10.31	453.7	392.09	0.0619	487.4	8.773	18.53	10.09	1.59
	104.77	32.77	66.89	0.00	0.0596	10.32	453.9	392.26	0.0617	484.0	8.712	18.40	9.98	1.59
	105.78	32.81	66.91	0.00	0.0596	10.31	453.6	391.93	0.0617	484.0	8.713	18.40	9.99	1.60
	106.78	32.82	66.89	0.00	0.0596	10.31	453.6	392.03	0.0618	485.3	8.735	18.45	10.02	1.59
	107.78	32.77	66.89	0.00	0.0595	10.29	452.8	391.31	0.0619	487.8	8.781	18.55	10.10	1.59
	108.78	32.80	66.89	-0.00	0.0594	10.28	452.4	390.92	0.0616	482.3	8.681	18.34	9.93	1.59
	109.79	32.77	66.87	-0.00	0.0595	10.29	452.6	391.27	0.0623	489.7	8.814	18.63	10.16	1.59
	110.78	32.75	66.87	0.00	0.0594	10.28	452.2	390.86	0.0621	489.0	8.803	18.60	10.14	1.60
	111.78	32.79	66.89	-0.00	0.0597	10.32	454.1	392.39	0.0624	491.8	8.852	18.70	10.22	1.60
	112.79	32.75	66.86	-0.00	0.0596	10.31	453.4	391.96	0.0621	489.6	8.813	18.62	10.15	1.59
	113.77	32.69	66.88	0.00	0.0598	10.33	454.3	392.60	0.0596	472.3	8.502	17.96	9.61	1.59
	114.77	32.76	66.89	0.00	0.0595	10.30	453.4	391.79	0.0623	490.3	8.825	18.64	10.17	1.59
	115.78	32.79	66.89	0.00	0.0596	10.31	453.6	391.97	0.0618	485.6	8.741	18.46	10.03	1.59
	116.78	32.69	66.89	0.00	0.0597	10.33	454.4	392.57	0.0593	465.9	8.386	17.71	9.41	1.60
	117.78	32.73	66.89	0.00	0.0598	10.34	454.8	392.94	0.0592	463.4	8.342	17.62	9.33	1.60
	118.86	32.80	66.89	0.00	0.0598	10.36	455.9	394.04	0.0586	447.8	8.060	17.03	8.83	1.59
	119.79	32.79	66.87	-0.00	0.0597	10.33	454.5	392.88	0.0586	450.5	8.109	17.14	8.92	1.59
	120.78	32.78	66.87	0.00	0.0598	10.34	455.0	393.36	0.0593	458.0	8.244	17.42	9.16	1.59
	121.79	32.82	66.89	-0.00	0.0598	10.35	455.3	393.54	0.0586	453.1	8.156	17.23	9.00	1.59
