Jul 28 2015 at 10:19:54
Frequency: 1.00Hz.
CO2
Zero:  Value:0.95  Date:18 Mar 2005	 at 07:22:33	
Span:  Value:1.00  Date:18 Mar 2005	 at 07:25:09	
H2O
Zero:  Value:0.71  Date:18 Mar 2005	 at 07:52:31	
Span:  Value:0.99  Date:18 Mar 2005	 at 11:44:01	
	Relative Time	Temperature	Pressure	Aux Input	CO2 Absorptance	CO2 mmol/m3	CO2 mg/m3	CO2 umol/mol	H2O Absorptance	H2O mmol/m3	H2O g/m3	H2O mmol/mol	H2O(°C)	Cooler Voltage
	0.48	23.36	67.65	0.00	0.0645	11.28	496.3	411.07	0.0463	337.0	6.066	12.28	4.24	1.55
	1.48	23.38	67.65	-0.00	0.0645	11.42	502.5	416.22	0.0460	317.7	5.719	11.58	3.41	1.56
	2.48	23.40	67.68	0.00	0.0643	11.35	499.4	413.48	0.0470	328.8	5.918	11.98	3.89	1.56
	3.54	23.40	67.65	0.00	0.0639	11.26	495.5	410.46	0.0476	335.5	6.039	12.23	4.18	1.56
	4.49	23.40	67.65	-0.00	0.0632	11.12	489.3	405.24	0.0494	350.6	6.311	12.78	4.81	1.55
	5.48	23.40	67.63	-0.00	0.0630	11.08	487.5	403.90	0.0504	356.0	6.409	12.98	5.03	1.55
	6.46	23.40	67.65	-0.00	0.0629	11.03	485.2	401.92	0.0510	366.6	6.599	13.36	5.45	1.56
	7.47	23.40	67.65	0.00	0.0631	11.09	488.0	404.20	0.0497	353.5	6.362	12.88	4.93	1.56
	8.46	23.41	67.65	0.00	0.0632	11.06	486.6	403.08	0.0497	357.7	6.438	13.04	5.10	1.56
	9.48	23.41	67.65	-0.00	0.0631	11.07	487.1	403.48	0.0504	360.4	6.487	13.14	5.21	1.56
	10.47	23.42	67.65	0.00	0.0632	11.07	486.9	403.36	0.0497	359.1	6.463	13.09	5.15	1.55
	11.48	23.43	67.65	0.00	0.0636	11.18	491.9	407.47	0.0487	345.3	6.215	12.59	4.59	1.56
	12.48	23.47	67.65	-0.00	0.0637	11.20	492.9	408.37	0.0486	344.7	6.205	12.57	4.57	1.56
	13.49	23.45	67.65	-0.00	0.0640	11.25	494.8	409.91	0.0476	338.1	6.087	12.33	4.30	1.56
	14.48	23.45	67.65	0.00	0.0643	11.31	497.8	412.42	0.0468	328.9	5.921	11.99	3.90	1.56
	15.48	23.45	67.65	0.00	0.0643	11.33	498.4	412.92	0.0467	325.8	5.865	11.88	3.77	1.55
	16.55	23.47	67.65	-0.00	0.0647	11.40	501.6	415.53	0.0463	323.2	5.817	11.78	3.65	1.56
	17.47	23.48	67.65	0.00	0.0646	11.39	501.3	415.36	0.0464	322.9	5.813	11.77	3.64	1.56
	18.55	23.47	67.65	0.00	0.0645	11.36	500.0	414.21	0.0464	323.9	5.830	11.81	3.68	1.56
	19.48	23.47	67.62	-0.00	0.0647	11.41	502.0	416.06	0.0462	322.7	5.809	11.77	3.63	1.56
	20.47	23.45	67.65	0.00	0.0647	11.44	503.5	417.12	0.0464	323.2	5.818	11.78	3.65	1.56
	21.47	23.47	67.65	0.00	0.0647	11.43	503.0	416.75	0.0467	327.1	5.889	11.93	3.83	1.56
	22.48	23.47	67.65	-0.00	0.0646	11.41	502.1	416.00	0.0467	326.1	5.870	11.89	3.78	1.56
	23.46	23.45	67.65	0.00	0.0647	11.44	503.5	417.09	0.0466	325.7	5.862	11.87	3.76	1.56
	24.48	23.47	67.62	-0.00	0.0648	11.47	504.8	418.37	0.0466	324.3	5.837	11.83	3.70	1.56
	25.46	23.48	67.65	0.00	0.0645	11.38	500.9	414.98	0.0469	328.7	5.917	11.98	3.90	1.56
	26.47	23.49	67.65	0.00	0.0646	11.40	501.6	415.54	0.0469	329.1	5.924	12.00	3.91	1.56
	27.47	23.49	67.65	0.00	0.0647	11.43	502.8	416.62	0.0471	330.5	5.949	12.05	3.97	1.56
	28.49	23.50	67.65	-0.00	0.0644	11.36	500.0	414.27	0.0473	331.1	5.961	12.07	4.00	1.56
	29.48	23.52	67.68	-0.00	0.0645	11.37	500.4	414.50	0.0472	331.7	5.970	12.09	4.02	1.56
	30.48	23.50	67.65	-0.00	0.0645	11.36	499.9	414.21	0.0475	335.1	6.031	12.22	4.17	1.56
	31.47	23.52	67.65	0.00	0.0646	11.41	501.9	415.93	0.0473	332.3	5.981	12.12	4.05	1.56
	32.46	23.52	67.65	-0.00	0.0644	11.35	499.5	413.88	0.0472	332.0	5.976	12.10	4.04	1.56
	33.46	23.54	67.65	0.00	0.0644	11.37	500.2	414.48	0.0474	333.7	6.006	12.17	4.11	1.56
	34.46	23.52	67.60	0.00	0.0645	11.37	500.3	414.87	0.0476	333.6	6.004	12.17	4.11	1.56
	35.46	23.52	67.65	0.00	0.0644	11.37	500.1	414.41	0.0475	333.7	6.007	12.17	4.11	1.56
	36.46	23.54	67.65	0.00	0.0645	11.39	501.0	415.17	0.0475	334.3	6.017	12.19	4.14	1.56
	37.55	23.54	67.62	0.00	0.0644	11.38	500.6	415.01	0.0475	334.2	6.015	12.19	4.13	1.56
	38.47	23.53	67.65	0.00	0.0644	11.36	499.7	414.10	0.0474	334.0	6.011	12.18	4.12	1.56
	39.48	23.54	67.62	0.00	0.0645	11.37	500.5	414.89	0.0475	333.9	6.011	12.18	4.12	1.56
	40.48	23.57	67.63	0.00	0.0644	11.38	500.7	415.11	0.0476	334.9	6.028	12.22	4.16	1.56
	41.56	23.55	67.65	-0.00	0.0644	11.37	500.4	414.68	0.0475	334.6	6.022	12.20	4.15	1.56
	42.46	23.56	67.62	0.00	0.0644	11.35	499.3	413.95	0.0476	334.1	6.013	12.19	4.13	1.56
	43.48	23.56	67.63	-0.00	0.0643	11.34	499.2	413.81	0.0476	334.6	6.023	12.21	4.15	1.56
	44.48	23.59	67.65	-0.00	0.0644	11.37	500.4	414.78	0.0478	338.1	6.085	12.33	4.30	1.56
	45.48	23.57	67.65	-0.00	0.0644	11.35	499.5	413.95	0.0480	338.4	6.091	12.34	4.31	1.56
	46.47	23.57	67.63	0.00	0.0645	11.38	500.8	415.21	0.0483	341.0	6.139	12.44	4.42	1.56
	47.47	23.57	67.68	-0.00	0.0644	11.35	499.4	413.70	0.0481	338.9	6.101	12.35	4.34	1.56
	48.56	23.56	67.65	-0.00	0.0643	11.35	499.3	413.74	0.0481	339.5	6.110	12.38	4.36	1.56
	49.47	23.57	67.65	0.00	0.0643	11.35	499.5	413.94	0.0481	340.4	6.127	12.41	4.40	1.56
	50.48	23.57	67.65	0.00	0.0643	11.34	499.0	413.58	0.0479	339.5	6.111	12.38	4.36	1.56
	51.48	23.57	67.65	-0.00	0.0642	11.35	499.5	413.98	0.0478	338.0	6.085	12.33	4.30	1.56
	52.49	23.59	67.65	-0.00	0.0643	11.34	498.9	413.53	0.0479	337.4	6.072	12.30	4.27	1.56
	53.54	23.59	67.65	0.00	0.0642	11.34	498.9	413.52	0.0480	338.7	6.096	12.35	4.33	1.56
	54.46	23.61	67.65	0.00	0.0643	11.34	498.9	413.54	0.0481	340.5	6.129	12.42	4.40	1.56
	55.49	23.60	67.62	-0.00	0.0643	11.35	499.3	413.98	0.0482	341.5	6.146	12.46	4.44	1.56
	56.47	23.59	67.63	-0.00	0.0644	11.35	499.2	413.88	0.0484	341.5	6.146	12.46	4.44	1.56
	57.49	23.64	67.65	-0.00	0.0643	11.32	497.9	412.75	0.0483	341.1	6.140	12.44	4.43	1.56
	58.47	23.63	67.68	-0.00	0.0642	11.32	498.3	412.87	0.0484	342.8	6.170	12.50	4.50	1.56
	59.47	23.62	67.65	0.00	0.0643	11.34	498.9	413.49	0.0487	344.7	6.205	12.57	4.58	1.56
	60.47	23.63	67.65	0.00	0.0643	11.35	499.4	414.00	0.0489	348.5	6.273	12.71	4.74	1.56
	61.47	23.62	67.65	0.00	0.0643	11.34	499.1	413.67	0.0491	349.8	6.296	12.76	4.79	1.56
	62.46	23.62	67.65	0.00	0.0643	11.35	499.4	413.96	0.0490	350.3	6.306	12.78	4.81	1.56
	63.48	23.66	67.60	-0.00	0.0642	11.32	497.9	413.10	0.0487	345.1	6.211	12.60	4.60	1.56
	64.48	23.64	67.65	0.00	0.0642	11.33	498.3	413.09	0.0488	346.6	6.239	12.64	4.66	1.56
	65.47	23.64	67.63	0.00	0.0644	11.34	498.7	413.59	0.0491	348.7	6.277	12.72	4.75	1.57
	66.47	23.64	67.65	0.00	0.0643	11.34	498.9	413.60	0.0492	351.1	6.320	12.81	4.84	1.56
	67.55	23.66	67.65	0.00	0.0642	11.33	498.4	413.18	0.0491	350.0	6.300	12.77	4.80	1.56
	68.47	23.62	67.65	0.00	0.0642	11.32	497.9	412.74	0.0492	350.6	6.310	12.79	4.82	1.56
	69.48	23.64	67.65	-0.00	0.0642	11.33	498.6	413.32	0.0494	352.4	6.343	12.85	4.89	1.56
	70.47	23.62	67.63	0.00	0.0642	11.33	498.3	413.21	0.0496	354.9	6.388	12.95	5.00	1.56
	71.48	23.66	67.60	0.00	0.0643	11.33	498.7	413.77	0.0498	356.5	6.418	13.02	5.06	1.57
	72.48	23.66	67.60	0.00	0.0642	11.33	498.3	413.41	0.0498	356.8	6.422	13.02	5.07	1.57
	73.48	23.68	67.65	-0.00	0.0643	11.34	498.8	413.52	0.0500	359.3	6.467	13.11	5.18	1.56
	74.47	23.68	67.65	-0.00	0.0643	11.33	498.6	413.41	0.0500	359.0	6.461	13.09	5.16	1.56
	75.46	23.68	67.65	0.00	0.0641	11.31	497.8	412.68	0.0499	359.0	6.462	13.10	5.16	1.57
	76.47	23.69	67.65	0.00	0.0639	11.25	495.1	410.50	0.0496	354.6	6.382	12.93	4.99	1.57
	77.45	23.70	67.65	0.00	0.0640	11.26	495.5	410.81	0.0496	354.6	6.383	12.94	4.99	1.57
	78.47	23.68	67.65	-0.00	0.0640	11.26	495.5	410.80	0.0497	354.5	6.381	12.93	4.98	1.57
	79.47	23.70	67.65	0.00	0.0639	11.26	495.4	410.70	0.0496	354.8	6.387	12.94	5.00	1.56
	80.48	23.73	67.65	0.00	0.0641	11.31	497.5	412.56	0.0502	360.4	6.487	13.15	5.22	1.57
	81.48	23.71	67.65	-0.00	0.0641	11.30	497.1	412.16	0.0502	360.0	6.479	13.13	5.20	1.57
	82.49	23.70	67.65	-0.00	0.0640	11.27	495.7	410.96	0.0500	357.5	6.434	13.04	5.10	1.57
	83.46	23.71	67.65	0.00	0.0640	11.28	496.3	411.48	0.0502	361.0	6.498	13.17	5.25	1.57
	84.49	23.70	67.65	-0.00	0.0639	11.27	495.9	411.16	0.0503	362.2	6.520	13.21	5.29	1.57
	85.47	23.73	67.65	0.00	0.0640	11.28	496.1	411.37	0.0505	364.0	6.552	13.28	5.37	1.57
	86.47	23.73	67.65	-0.00	0.0640	11.28	496.2	411.47	0.0505	363.8	6.548	13.27	5.36	1.57
	87.55	23.73	67.63	-0.00	0.0639	11.25	495.0	410.57	0.0504	361.9	6.515	13.21	5.28	1.57
	88.47	23.73	67.65	-0.00	0.0639	11.25	495.1	410.53	0.0505	363.1	6.536	13.25	5.33	1.57
	89.47	23.73	67.65	0.00	0.0639	11.25	494.8	410.27	0.0504	362.7	6.528	13.23	5.31	1.57
	90.47	23.73	67.62	-0.00	0.0638	11.24	494.5	410.18	0.0505	363.4	6.541	13.26	5.34	1.57
	91.46	23.74	67.62	0.00	0.0638	11.22	493.7	409.61	0.0505	363.6	6.544	13.27	5.35	1.57
	92.54	23.73	67.65	0.00	0.0638	11.21	493.5	409.19	0.0506	364.3	6.558	13.29	5.38	1.57
	93.48	23.75	67.65	0.00	0.0638	11.23	494.2	409.79	0.0507	364.9	6.567	13.31	5.40	1.57
	94.47	23.75	67.65	0.00	0.0638	11.24	494.4	409.98	0.0507	365.8	6.584	13.35	5.44	1.57
	95.46	23.77	67.67	0.00	0.0637	11.20	492.9	408.65	0.0506	364.5	6.560	13.29	5.39	1.57
	96.47	23.74	67.65	0.00	0.0638	11.23	494.0	409.65	0.0508	367.1	6.607	13.39	5.49	1.57
	97.48	23.76	67.63	-0.00	0.0638	11.21	493.3	409.22	0.0510	368.0	6.624	13.43	5.52	1.57
	98.48	23.77	67.65	-0.00	0.0639	11.25	494.9	410.39	0.0513	370.3	6.666	13.51	5.62	1.57
	99.55	23.77	67.65	0.00	0.0639	11.25	494.9	410.40	0.0512	369.8	6.656	13.49	5.59	1.57
	100.47	23.77	67.65	0.00	0.0639	11.25	494.8	410.35	0.0511	369.9	6.659	13.50	5.60	1.57
	101.48	23.75	67.65	0.00	0.0639	11.24	494.5	410.06	0.0511	369.3	6.647	13.47	5.57	1.57
	102.48	23.78	67.62	-0.00	0.0638	11.22	493.5	409.48	0.0510	369.0	6.642	13.47	5.56	1.57
	103.49	23.78	67.65	-0.00	0.0639	11.25	494.9	410.48	0.0513	372.0	6.696	13.58	5.68	1.57
	104.47	23.80	67.65	-0.00	0.0638	11.23	494.1	409.83	0.0511	369.4	6.649	13.48	5.58	1.57
	105.47	23.78	67.65	0.00	0.0637	11.21	493.2	409.06	0.0510	368.7	6.637	13.45	5.55	1.57
	106.47	23.78	67.65	-0.00	0.0639	11.24	494.6	410.18	0.0514	371.7	6.690	13.56	5.67	1.57
	107.47	23.82	67.68	0.00	0.0638	11.23	494.1	409.71	0.0514	372.5	6.705	13.59	5.70	1.57
	108.48	23.82	67.67	-0.00	0.0638	11.23	494.2	409.76	0.0516	373.3	6.720	13.62	5.74	1.57
	109.47	23.81	67.65	0.00	0.0638	11.23	494.0	409.79	0.0515	374.6	6.742	13.67	5.78	1.57
	110.48	23.82	67.65	0.00	0.0638	11.22	493.7	409.48	0.0518	375.7	6.762	13.71	5.83	1.57
	111.48	23.84	67.68	-0.00	0.0638	11.22	493.8	409.45	0.0518	376.0	6.768	13.72	5.84	1.57
	112.46	23.84	67.65	0.00	0.0638	11.23	494.1	409.85	0.0517	376.7	6.781	13.75	5.87	1.57
	113.54	23.84	67.63	0.00	0.0638	11.23	493.9	409.84	0.0519	377.0	6.786	13.77	5.88	1.57
	114.47	23.84	67.65	-0.00	0.0636	11.20	492.6	408.62	0.0518	376.5	6.777	13.74	5.86	1.57
	115.47	23.85	67.65	0.00	0.0636	11.18	491.8	407.94	0.0518	376.6	6.779	13.75	5.86	1.57
	116.47	23.84	67.65	0.00	0.0637	11.20	492.6	408.64	0.0520	377.2	6.790	13.77	5.89	1.57
	117.48	23.85	67.65	-0.00	0.0638	11.20	492.8	408.81	0.0520	377.9	6.803	13.80	5.91	1.58
	118.47	23.85	67.62	0.00	0.0638	11.23	493.9	409.88	0.0521	379.6	6.833	13.86	5.98	1.57
