Jul 28 2015 at 12:45:46
Frequency: 1.00Hz.
CO2
Zero:  Value:0.95  Date:18 Mar 2005	 at 07:22:33	
Span:  Value:1.00  Date:18 Mar 2005	 at 07:25:09	
H2O
Zero:  Value:0.71  Date:18 Mar 2005	 at 07:52:31	
Span:  Value:0.99  Date:18 Mar 2005	 at 11:44:01	
	Relative Time	Temperature	Pressure	Aux Input	CO2 Absorptance	CO2 mmol/m3	CO2 mg/m3	CO2 umol/mol	H2O Absorptance	H2O mmol/m3	H2O g/m3	H2O mmol/mol	H2O(°C)	Cooler Voltage
	0.28	30.01	67.70	0.00	0.0613	10.68	469.8	397.46	0.0506	361.4	6.505	13.45	5.56	1.61
	1.31	30.03	67.70	0.00	0.0612	10.62	467.3	395.38	0.0533	388.7	6.996	14.47	6.62	1.61
	2.31	30.01	67.78	-0.00	0.0610	10.59	465.8	393.67	0.0546	402.3	7.241	14.96	7.12	1.61
	3.31	30.08	67.70	-0.00	0.0609	10.58	465.4	393.91	0.0536	395.4	7.117	14.72	6.87	1.61
	4.29	30.05	67.70	0.00	0.0612	10.64	467.9	395.99	0.0534	389.4	7.010	14.50	6.65	1.61
	5.30	30.05	67.68	-0.00	0.0610	10.59	465.9	394.43	0.0548	404.4	7.279	15.06	7.20	1.61
	6.29	30.05	67.72	0.00	0.0611	10.63	467.6	395.52	0.0523	386.3	6.954	14.38	6.53	1.61
	7.30	30.05	67.70	0.00	0.0612	10.61	467.0	395.16	0.0536	395.2	7.113	14.71	6.86	1.61
	8.30	30.05	67.67	-0.00	0.0612	10.62	467.1	395.47	0.0530	397.0	7.145	14.79	6.93	1.61
	9.30	30.07	67.72	0.00	0.0615	10.64	468.3	396.21	0.0524	386.2	6.952	14.38	6.53	1.61
	10.36	30.09	67.70	0.00	0.0613	10.65	468.8	396.76	0.0524	380.3	6.845	14.16	6.30	1.61
	11.28	30.05	67.73	0.00	0.0612	10.66	469.1	396.81	0.0525	383.7	6.907	14.28	6.43	1.61
	12.29	30.05	67.68	0.00	0.0613	10.65	468.7	396.80	0.0530	385.4	6.937	14.35	6.49	1.61
	13.31	30.05	67.70	-0.00	0.0614	10.68	469.9	397.64	0.0536	394.9	7.108	14.70	6.85	1.61
	14.38	30.06	67.68	-0.00	0.0614	10.67	469.4	397.39	0.0538	395.3	7.115	14.72	6.86	1.61
	15.29	30.06	67.70	0.00	0.0613	10.64	468.3	396.35	0.0537	395.5	7.119	14.73	6.87	1.61
	16.29	30.06	67.70	0.00	0.0614	10.66	469.0	396.91	0.0539	397.7	7.158	14.81	6.95	1.61
	17.30	30.08	67.68	-0.00	0.0613	10.66	469.2	397.27	0.0541	399.3	7.187	14.87	7.01	1.61
	18.30	30.05	67.70	-0.00	0.0613	10.65	468.5	396.41	0.0539	397.3	7.152	14.79	6.94	1.61
	19.30	30.05	67.70	0.00	0.0613	10.64	468.4	396.34	0.0536	395.2	7.114	14.71	6.86	1.61
	20.30	30.01	67.70	-0.00	0.0612	10.65	468.4	396.33	0.0536	394.9	7.108	14.70	6.85	1.61
	21.31	30.00	67.68	0.00	0.0615	10.68	470.1	397.92	0.0538	396.8	7.142	14.78	6.92	1.61
	22.31	30.07	67.68	-0.00	0.0615	10.70	470.6	398.41	0.0540	398.5	7.173	14.85	6.98	1.61
	23.32	30.05	67.70	-0.00	0.0615	10.70	470.9	398.52	0.0542	400.6	7.210	14.91	7.06	1.61
	24.30	30.02	67.70	-0.00	0.0616	10.72	471.6	399.05	0.0547	405.3	7.296	15.09	7.23	1.61
	25.29	30.05	67.68	0.00	0.0614	10.69	470.2	398.02	0.0542	400.2	7.204	14.91	7.04	1.61
	26.30	30.03	67.73	-0.00	0.0615	10.70	470.7	398.12	0.0545	403.7	7.267	15.02	7.17	1.61
	27.30	30.03	67.72	-0.00	0.0615	10.71	471.4	398.71	0.0548	407.6	7.336	15.17	7.31	1.61
	28.30	30.07	67.68	0.00	0.0615	10.70	470.6	398.43	0.0545	404.1	7.274	15.05	7.19	1.61
	29.28	30.03	67.70	0.00	0.0614	10.67	469.5	397.25	0.0540	399.4	7.188	14.87	7.01	1.61
	30.30	30.05	67.70	0.00	0.0615	10.68	470.1	397.77	0.0546	405.0	7.290	15.08	7.22	1.61
	31.29	30.00	67.70	-0.00	0.0615	10.70	470.9	398.40	0.0548	406.9	7.324	15.15	7.28	1.61
	32.29	29.99	67.68	0.00	0.0614	10.68	469.9	397.70	0.0544	404.9	7.288	15.08	7.21	1.61
	33.29	30.01	67.68	-0.00	0.0614	10.67	469.6	397.46	0.0547	405.7	7.302	15.11	7.24	1.61
	34.30	29.99	67.70	0.00	0.0615	10.69	470.5	398.03	0.0549	409.6	7.373	15.25	7.38	1.61
	35.29	30.01	67.68	0.00	0.0614	10.69	470.3	398.05	0.0550	410.2	7.384	15.28	7.40	1.61
	36.30	30.01	67.70	-0.00	0.0613	10.64	468.2	396.16	0.0547	404.6	7.283	15.06	7.20	1.61
	37.30	29.97	67.70	0.00	0.0613	10.66	469.2	396.95	0.0547	406.3	7.313	15.12	7.26	1.61
	38.30	29.95	67.72	0.00	0.0613	10.65	468.5	396.20	0.0547	404.5	7.281	15.05	7.19	1.61
	39.30	29.96	67.70	0.00	0.0613	10.66	469.2	396.98	0.0546	406.6	7.318	15.13	7.27	1.61
	40.31	29.99	67.68	-0.00	0.0614	10.69	470.5	398.21	0.0552	411.4	7.405	15.32	7.44	1.61
	41.31	29.99	67.70	-0.00	0.0614	10.68	470.1	397.75	0.0551	409.7	7.374	15.25	7.38	1.61
	42.31	29.95	67.72	-0.00	0.0613	10.66	468.8	396.49	0.0547	405.5	7.299	15.09	7.23	1.61
	43.29	29.92	67.72	0.00	0.0614	10.68	469.9	397.30	0.0548	407.5	7.336	15.16	7.30	1.61
	44.29	29.93	67.70	0.00	0.0615	10.68	469.9	397.46	0.0550	409.5	7.370	15.24	7.37	1.61
	45.30	29.95	67.70	-0.00	0.0613	10.67	469.4	397.08	0.0549	409.0	7.362	15.22	7.36	1.61
	46.38	29.97	67.70	0.00	0.0614	10.66	469.1	396.83	0.0550	408.7	7.357	15.21	7.35	1.61
	47.30	29.99	67.70	-0.00	0.0613	10.65	468.5	396.40	0.0550	408.9	7.360	15.22	7.35	1.61
	48.28	30.01	67.68	0.00	0.0614	10.67	469.5	397.41	0.0551	410.0	7.381	15.27	7.40	1.61
	49.30	30.01	67.70	-0.00	0.0614	10.68	469.7	397.46	0.0552	411.0	7.398	15.30	7.43	1.61
	50.30	30.01	67.73	0.00	0.0613	10.64	468.3	396.11	0.0551	409.2	7.366	15.23	7.37	1.61
	51.29	30.05	67.70	0.00	0.0613	10.65	468.8	396.70	0.0550	409.8	7.377	15.26	7.39	1.61
	52.28	30.01	67.73	0.00	0.0615	10.67	469.6	397.19	0.0556	413.5	7.443	15.39	7.52	1.61
	53.38	29.99	67.70	-0.00	0.0614	10.69	470.3	397.87	0.0555	415.9	7.486	15.48	7.60	1.61
	54.30	30.00	67.70	-0.00	0.0615	10.68	470.1	397.75	0.0558	416.4	7.496	15.50	7.62	1.61
	55.32	30.05	67.70	-0.00	0.0614	10.69	470.2	397.84	0.0557	416.1	7.489	15.49	7.61	1.61
	56.30	30.04	67.72	-0.00	0.0615	10.68	469.9	397.49	0.0556	415.1	7.473	15.45	7.58	1.61
	57.28	30.03	67.68	-0.00	0.0615	10.70	470.8	398.57	0.0560	420.0	7.560	15.64	7.75	1.61
	58.30	30.03	67.70	-0.00	0.0614	10.69	470.4	398.02	0.0559	418.7	7.537	15.59	7.71	1.61
	59.30	30.03	67.68	-0.00	0.0615	10.71	471.1	398.77	0.0561	420.5	7.569	15.66	7.77	1.61
	60.29	30.02	67.68	0.00	0.0615	10.70	470.9	398.57	0.0558	417.2	7.510	15.54	7.65	1.61
	61.29	30.07	67.72	0.00	0.0614	10.68	470.0	397.64	0.0556	415.5	7.480	15.47	7.60	1.61
	62.31	30.05	67.70	0.00	0.0614	10.67	469.6	397.37	0.0554	413.7	7.447	15.41	7.53	1.62
	63.30	30.03	67.68	0.00	0.0614	10.68	469.8	397.62	0.0554	414.4	7.459	15.43	7.55	1.61
	64.30	29.98	67.70	-0.00	0.0614	10.66	469.0	396.76	0.0553	412.4	7.424	15.35	7.48	1.61
	65.36	29.98	67.70	0.00	0.0614	10.67	469.7	397.40	0.0554	413.2	7.437	15.38	7.51	1.61
	66.28	30.01	67.70	0.00	0.0613	10.66	469.0	396.82	0.0554	412.3	7.421	15.35	7.48	1.61
	67.30	29.98	67.70	0.00	0.0614	10.68	469.7	397.40	0.0555	414.1	7.455	15.42	7.54	1.61
	68.28	29.97	67.72	0.00	0.0614	10.68	470.0	397.50	0.0554	416.5	7.496	15.50	7.62	1.62
	69.30	29.97	67.70	0.00	0.0614	10.67	469.4	397.15	0.0554	414.3	7.457	15.42	7.55	1.62
	70.31	29.99	67.68	0.00	0.0615	10.68	469.9	397.70	0.0559	419.0	7.541	15.60	7.71	1.61
	71.31	29.97	67.70	-0.00	0.0613	10.65	468.5	396.38	0.0554	414.4	7.458	15.43	7.55	1.62
	72.29	29.99	67.72	-0.00	0.0613	10.66	469.3	396.89	0.0556	414.2	7.456	15.42	7.55	1.61
	73.29	29.96	67.68	0.00	0.0613	10.65	468.7	396.65	0.0553	412.2	7.420	15.35	7.47	1.62
	74.38	29.95	67.68	-0.00	0.0613	10.66	469.0	396.93	0.0554	413.2	7.438	15.39	7.51	1.62
	75.29	30.00	67.72	0.00	0.0612	10.64	468.2	395.97	0.0552	411.9	7.414	15.33	7.46	1.62
	76.30	29.95	67.70	-0.00	0.0612	10.64	468.1	396.01	0.0553	411.9	7.414	15.33	7.46	1.61
	77.28	29.97	67.72	0.00	0.0613	10.65	468.6	396.34	0.0555	415.2	7.473	15.45	7.58	1.62
	78.28	29.95	67.70	0.00	0.0614	10.67	469.3	397.03	0.0560	417.8	7.520	15.55	7.67	1.62
	79.30	29.99	67.72	0.00	0.0613	10.66	469.0	396.64	0.0556	416.4	7.495	15.50	7.62	1.62
	80.28	29.98	67.70	0.00	0.0613	10.64	468.1	396.03	0.0555	413.9	7.450	15.41	7.53	1.62
	81.31	30.01	67.68	-0.00	0.0613	10.65	468.4	396.45	0.0555	414.9	7.469	15.45	7.57	1.62
	82.29	29.99	67.73	0.00	0.0612	10.63	467.9	395.73	0.0553	412.8	7.430	15.36	7.49	1.62
	83.31	29.99	67.70	0.00	0.0612	10.64	468.3	396.17	0.0553	412.7	7.429	15.36	7.49	1.62
	84.30	30.01	67.70	0.00	0.0612	10.64	468.0	395.93	0.0553	413.4	7.441	15.39	7.52	1.62
	85.30	29.99	67.70	0.00	0.0612	10.64	468.0	396.00	0.0554	413.5	7.443	15.39	7.52	1.62
	86.28	30.01	67.68	0.00	0.0612	10.62	467.4	395.59	0.0552	412.4	7.424	15.36	7.48	1.62
	87.30	29.98	67.70	-0.00	0.0611	10.61	467.0	395.07	0.0552	411.0	7.398	15.30	7.43	1.62
	88.30	30.01	67.68	-0.00	0.0612	10.64	468.3	396.40	0.0555	414.7	7.464	15.44	7.56	1.62
	89.28	30.03	67.70	0.00	0.0611	10.61	466.6	394.87	0.0554	413.0	7.433	15.38	7.50	1.62
	90.29	29.99	67.70	-0.00	0.0613	10.64	468.2	396.15	0.0558	417.2	7.509	15.53	7.65	1.62
	91.28	30.01	67.68	0.00	0.0612	10.61	466.7	395.06	0.0557	415.7	7.483	15.48	7.60	1.62
	92.31	30.05	67.70	0.00	0.0612	10.63	467.6	395.72	0.0558	417.3	7.511	15.54	7.66	1.62
	93.29	30.03	67.70	0.00	0.0612	10.63	467.9	395.96	0.0559	419.2	7.546	15.61	7.72	1.62
	94.32	30.03	67.70	-0.00	0.0611	10.62	467.5	395.56	0.0558	419.0	7.541	15.60	7.71	1.62
	95.30	29.99	67.70	-0.00	0.0613	10.64	468.3	396.25	0.0561	419.8	7.556	15.63	7.74	1.62
	96.31	29.99	67.68	-0.00	0.0613	10.64	468.0	396.12	0.0562	420.9	7.576	15.67	7.78	1.62
	97.30	29.99	67.70	0.00	0.0612	10.65	468.4	396.29	0.0562	423.1	7.615	15.75	7.85	1.62
	98.28	30.02	67.70	0.00	0.0612	10.64	468.2	396.15	0.0562	421.6	7.589	15.70	7.80	1.62
	99.30	30.02	67.70	0.00	0.0612	10.63	467.9	395.88	0.0563	423.8	7.629	15.78	7.88	1.62
	100.28	30.09	67.70	0.00	0.0612	10.62	467.3	395.51	0.0563	423.1	7.615	15.75	7.86	1.62
	101.29	30.08	67.70	0.00	0.0611	10.60	466.4	394.75	0.0562	421.5	7.588	15.70	7.81	1.62
	102.27	30.10	67.72	0.00	0.0612	10.63	467.6	395.67	0.0564	423.3	7.619	15.76	7.87	1.62
	103.30	30.10	67.70	0.00	0.0612	10.64	468.1	396.22	0.0566	425.9	7.666	15.86	7.96	1.62
	104.30	30.13	67.72	-0.00	0.0612	10.63	467.6	395.65	0.0568	428.0	7.704	15.93	8.03	1.62
	105.28	30.12	67.68	0.00	0.0612	10.63	467.9	396.19	0.0570	428.6	7.714	15.97	8.05	1.62
	106.30	30.12	67.70	0.00	0.0612	10.63	467.7	395.87	0.0572	431.2	7.762	16.06	8.14	1.62
	107.30	30.14	67.70	-0.00	0.0612	10.64	468.0	396.18	0.0572	431.5	7.766	16.07	8.15	1.62
	108.31	30.18	67.70	-0.00	0.0612	10.63	467.8	396.10	0.0570	430.7	7.752	16.04	8.13	1.62
	109.29	30.16	67.68	-0.00	0.0612	10.63	467.8	396.12	0.0572	432.0	7.777	16.10	8.17	1.62
	110.31	30.16	67.70	-0.00	0.0613	10.64	468.2	396.37	0.0571	432.2	7.779	16.10	8.18	1.62
	111.31	30.18	67.70	0.00	0.0611	10.60	466.6	395.02	0.0571	431.1	7.760	16.06	8.14	1.62
	112.31	30.14	67.70	-0.00	0.0612	10.62	467.5	395.71	0.0576	436.2	7.851	16.25	8.31	1.62
	113.30	30.12	67.70	-0.00	0.0611	10.64	468.1	396.20	0.0575	438.0	7.884	16.31	8.37	1.62
	114.29	30.14	67.68	0.00	0.0612	10.63	467.7	396.09	0.0574	436.4	7.855	16.26	8.32	1.62
	115.32	30.12	67.70	-0.00	0.0613	10.63	467.8	396.00	0.0581	439.5	7.911	16.37	8.42	1.62
	116.30	30.14	67.70	-0.00	0.0613	10.65	468.5	396.56	0.0581	442.3	7.962	16.47	8.52	1.62
	117.30	30.17	67.68	0.00	0.0613	10.67	469.4	397.52	0.0584	447.3	8.052	16.67	8.69	1.62
	118.28	30.15	67.70	0.00	0.0613	10.65	468.6	396.68	0.0585	445.0	8.009	16.57	8.61	1.62
	119.28	30.14	67.68	0.00	0.0614	10.66	469.2	397.30	0.0585	446.3	8.033	16.63	8.65	1.62
	120.31	30.14	67.70	0.00	0.0613	10.65	468.7	396.74	0.0585	446.9	8.044	16.64	8.67	1.62
	121.29	30.14	67.70	0.00	0.0613	10.66	468.9	396.91	0.0587	448.5	8.073	16.70	8.72	1.62
	122.38	30.12	67.70	-0.00	0.0613	10.66	469.2	397.14	0.0589	451.1	8.120	16.80	8.81	1.62
	123.30	30.10	67.70	-0.00	0.0614	10.67	469.6	397.43	0.0593	454.9	8.187	16.94	8.93	1.62
