Jul 28 2015 at 16:04:06
Frequency: 1.00Hz.
CO2
Zero:  Value:0.95  Date:18 Mar 2005	 at 07:22:33	
Span:  Value:1.00  Date:18 Mar 2005	 at 07:25:09	
H2O
Zero:  Value:0.71  Date:18 Mar 2005	 at 07:52:31	
Span:  Value:0.99  Date:18 Mar 2005	 at 11:44:01	
	Relative Time	Temperature	Pressure	Aux Input	CO2 Absorptance	CO2 mmol/m3	CO2 mg/m3	CO2 umol/mol	H2O Absorptance	H2O mmol/m3	H2O g/m3	H2O mmol/mol	H2O(°C)	Cooler Voltage
	0.27	31.25	66.89	0.00	0.0611	10.70	470.7	404.71	0.0440	287.4	5.173	10.87	2.36	1.60
	1.26	31.25	66.87	-0.00	0.0609	10.58	465.7	400.57	0.0461	323.8	5.828	12.25	4.05	1.60
	2.28	31.27	66.84	-0.00	0.0607	10.57	465.0	400.16	0.0469	327.3	5.892	12.39	4.20	1.60
	3.26	31.25	66.89	0.00	0.0607	10.56	464.6	399.51	0.0474	334.8	6.026	12.67	4.52	1.60
	4.24	31.25	66.89	0.00	0.0607	10.54	463.8	398.85	0.0477	336.0	6.048	12.71	4.58	1.60
	5.24	31.27	66.87	0.00	0.0607	10.52	463.0	398.25	0.0488	350.7	6.312	13.27	5.19	1.60
	6.27	31.23	66.89	-0.00	0.0605	10.53	463.5	398.48	0.0491	351.8	6.333	13.31	5.24	1.60
	7.27	31.23	66.87	0.00	0.0607	10.54	463.8	398.91	0.0494	352.8	6.350	13.35	5.27	1.60
	8.25	31.25	66.87	0.00	0.0604	10.51	462.3	397.64	0.0494	353.7	6.367	13.39	5.31	1.60
	9.27	31.27	66.87	-0.00	0.0605	10.52	462.9	398.17	0.0491	352.8	6.350	13.35	5.28	1.60
	10.28	31.22	66.90	-0.00	0.0604	10.50	462.2	397.32	0.0501	356.5	6.418	13.49	5.43	1.60
	11.26	31.20	66.89	-0.00	0.0604	10.50	462.1	397.27	0.0499	367.9	6.622	13.92	5.88	1.60
	12.26	31.23	66.89	0.00	0.0603	10.47	460.7	396.08	0.0505	362.7	6.529	13.72	5.68	1.60
	13.24	31.25	66.90	0.00	0.0601	10.42	458.6	394.32	0.0480	348.0	6.264	13.16	5.08	1.60
	14.28	31.25	66.87	-0.00	0.0603	10.46	460.2	395.80	0.0504	356.7	6.421	13.50	5.44	1.60
	15.27	31.23	66.89	-0.00	0.0603	10.46	460.1	395.62	0.0503	364.9	6.568	13.80	5.76	1.60
	16.27	31.25	66.86	-0.00	0.0603	10.46	460.2	395.83	0.0516	371.9	6.694	14.07	6.04	1.60
	17.25	31.25	66.84	0.00	0.0602	10.44	459.4	395.27	0.0502	363.9	6.551	13.78	5.72	1.60
	18.25	31.25	66.89	0.00	0.0602	10.41	458.3	394.04	0.0516	379.3	6.827	14.35	6.32	1.60
	19.27	31.25	66.89	-0.00	0.0602	10.44	459.5	395.05	0.0512	371.9	6.695	14.07	6.04	1.60
	20.25	31.27	66.84	0.00	0.0602	10.42	458.7	394.72	0.0521	374.3	6.737	14.17	6.13	1.60
	21.26	31.25	66.87	0.00	0.0601	10.45	459.8	395.54	0.0523	383.0	6.895	14.50	6.46	1.60
	22.26	31.28	66.87	0.00	0.0602	10.47	460.7	396.33	0.0525	384.3	6.917	14.55	6.51	1.60
	23.26	31.23	66.89	0.00	0.0602	10.43	458.7	394.39	0.0523	393.0	7.074	14.87	6.84	1.60
	24.26	31.23	66.87	0.00	0.0603	10.47	460.6	396.13	0.0528	387.7	6.978	14.67	6.64	1.60
	25.26	31.27	66.87	0.00	0.0603	10.45	459.9	395.60	0.0538	399.5	7.191	15.12	7.08	1.60
	26.27	31.27	66.87	-0.00	0.0602	10.42	458.6	394.48	0.0538	398.5	7.172	15.08	7.04	1.60
	27.25	31.27	66.87	0.00	0.0601	10.44	459.2	395.02	0.0523	386.1	6.951	14.62	6.58	1.60
	28.25	31.31	66.87	0.00	0.0603	10.47	460.6	396.25	0.0530	389.8	7.017	14.76	6.72	1.60
	29.25	31.31	66.89	0.00	0.0600	10.40	457.7	393.67	0.0526	384.6	6.922	14.55	6.52	1.60
	30.25	31.35	66.89	0.00	0.0603	10.46	460.1	395.79	0.0538	397.1	7.147	15.03	6.99	1.60
	31.26	31.31	66.87	-0.00	0.0601	10.40	457.7	393.74	0.0519	379.8	6.836	14.38	6.34	1.60
	32.25	31.28	66.87	0.00	0.0601	10.42	458.6	394.50	0.0515	377.8	6.801	14.30	6.27	1.60
	33.27	31.31	66.86	-0.00	0.0601	10.41	458.0	394.07	0.0531	389.3	7.008	14.74	6.70	1.60
	34.26	31.29	66.82	0.00	0.0600	10.41	458.2	394.50	0.0532	391.6	7.049	14.84	6.79	1.59
	35.26	31.25	66.89	-0.00	0.0600	10.41	458.3	394.04	0.0542	401.1	7.219	15.17	7.13	1.59
	36.27	31.25	66.89	0.00	0.0601	10.40	457.7	393.56	0.0545	407.3	7.332	15.41	7.36	1.59
	37.25	31.22	66.87	0.00	0.0601	10.39	457.3	393.29	0.0534	409.2	7.366	15.49	7.43	1.60
	38.25	31.23	66.87	0.00	0.0601	10.43	458.8	394.59	0.0550	407.6	7.337	15.43	7.37	1.60
	39.27	31.29	66.89	-0.00	0.0600	10.39	457.2	393.16	0.0553	411.1	7.399	15.55	7.50	1.60
	40.25	31.29	66.87	0.00	0.0601	10.43	458.7	394.64	0.0544	404.6	7.283	15.32	7.26	1.59
	41.25	31.29	66.92	0.00	0.0602	10.45	459.9	395.31	0.0552	414.4	7.459	15.67	7.61	1.60
	42.26	31.24	66.84	-0.00	0.0601	10.43	459.1	395.01	0.0540	401.5	7.226	15.20	7.15	1.60
	43.26	31.27	66.91	-0.00	0.0604	10.49	461.8	396.94	0.0547	409.7	7.375	15.50	7.45	1.60
	44.26	31.26	66.89	0.00	0.0602	10.45	459.8	395.34	0.0542	401.8	7.233	15.20	7.16	1.60
	45.27	31.24	66.87	-0.00	0.0602	10.42	458.3	394.23	0.0544	405.1	7.293	15.33	7.28	1.60
	46.27	31.29	66.90	0.00	0.0602	10.44	459.2	394.86	0.0547	411.0	7.399	15.55	7.49	1.60
	47.27	31.29	66.89	0.00	0.0600	10.42	458.4	394.26	0.0546	408.5	7.353	15.46	7.40	1.60
	48.27	31.25	66.87	0.00	0.0601	10.44	459.2	394.97	0.0551	410.1	7.382	15.52	7.46	1.60
	49.27	31.27	66.87	-0.00	0.0600	10.42	458.7	394.58	0.0543	404.6	7.283	15.31	7.26	1.59
	50.26	31.27	66.89	-0.00	0.0601	10.43	458.8	394.53	0.0546	412.4	7.423	15.60	7.54	1.60
	51.26	31.22	66.87	0.00	0.0601	10.43	458.9	394.65	0.0552	415.4	7.477	15.72	7.65	1.60
	52.26	31.25	66.89	-0.00	0.0600	10.39	457.3	393.19	0.0544	403.5	7.263	15.27	7.22	1.59
	53.32	31.20	66.87	0.00	0.0599	10.33	454.7	391.05	0.0532	390.6	7.030	14.78	6.75	1.60
	54.27	31.21	66.89	0.00	0.0600	10.41	457.9	393.65	0.0539	398.3	7.170	15.07	7.03	1.59
	55.26	31.23	66.87	0.00	0.0602	10.43	459.1	394.87	0.0543	404.2	7.276	15.30	7.25	1.59
	56.25	31.19	66.87	0.00	0.0603	10.45	459.8	395.44	0.0549	406.3	7.314	15.37	7.32	1.60
	57.25	31.25	66.87	0.00	0.0602	10.44	459.4	395.12	0.0551	412.5	7.426	15.61	7.55	1.60
	58.25	31.23	66.89	0.00	0.0602	10.44	459.5	395.11	0.0561	421.5	7.586	15.94	7.86	1.60
	59.25	31.25	66.87	0.00	0.0603	10.47	460.5	396.12	0.0565	429.7	7.735	16.26	8.15	1.60
	60.26	31.20	66.87	0.00	0.0601	10.43	459.0	394.70	0.0576	437.0	7.865	16.53	8.39	1.60
	61.28	31.23	66.87	-0.00	0.0603	10.46	460.2	395.80	0.0581	441.7	7.951	16.72	8.55	1.60
	62.26	31.18	66.87	-0.00	0.0603	10.45	459.7	395.36	0.0583	448.3	8.069	16.96	8.76	1.60
	63.27	31.21	66.87	-0.00	0.0601	10.43	458.9	394.69	0.0579	440.0	7.921	16.65	8.49	1.59
	64.27	31.20	66.87	-0.00	0.0600	10.42	458.4	394.24	0.0586	450.8	8.115	17.06	8.85	1.59
	65.26	31.21	66.89	0.00	0.0602	10.47	460.6	396.04	0.0592	458.8	8.258	17.35	9.11	1.60
	66.25	31.21	66.87	-0.00	0.0601	10.44	459.2	394.97	0.0587	452.1	8.138	17.11	8.89	1.59
	67.27	31.23	66.89	-0.00	0.0601	10.43	458.9	394.54	0.0585	444.9	8.008	16.83	8.66	1.59
	68.25	31.22	66.87	0.00	0.0600	10.40	457.4	393.39	0.0571	434.8	7.826	16.45	8.31	1.60
	69.25	31.25	66.89	0.00	0.0601	10.42	458.6	394.29	0.0588	453.0	8.155	17.14	8.93	1.59
	70.25	31.23	66.86	0.00	0.0600	10.42	458.5	394.39	0.0564	429.2	7.726	16.24	8.13	1.60
	71.25	31.23	66.87	0.00	0.0601	10.43	459.0	394.80	0.0599	463.4	8.341	17.54	9.26	1.60
	72.25	31.30	66.87	0.00	0.0601	10.43	458.7	394.64	0.0602	472.7	8.509	17.89	9.56	1.60
	73.27	31.23	66.89	-0.00	0.0600	10.41	457.9	393.70	0.0591	459.4	8.269	17.38	9.13	1.59
	74.26	31.25	66.89	0.00	0.0600	10.39	457.1	393.11	0.0584	453.3	8.159	17.15	8.93	1.60
	75.25	31.22	66.87	0.00	0.0600	10.41	457.9	393.82	0.0592	461.6	8.309	17.47	9.20	1.59
	76.27	31.21	66.84	0.00	0.0602	10.43	459.0	394.90	0.0613	480.9	8.657	18.21	9.81	1.59
	77.25	31.23	66.87	0.00	0.0599	10.38	456.9	392.93	0.0616	480.0	8.639	18.16	9.78	1.59
	78.25	31.20	66.89	0.00	0.0599	10.38	456.9	392.80	0.0621	489.5	8.811	18.52	10.07	1.60
	79.28	31.25	66.87	-0.00	0.0600	10.40	457.4	393.44	0.0617	480.5	8.648	18.18	9.80	1.60
	80.26	31.23	66.87	-0.00	0.0600	10.38	456.9	392.97	0.0612	478.1	8.605	18.09	9.72	1.60
	81.25	31.23	66.89	0.00	0.0599	10.39	456.9	392.89	0.0616	484.6	8.724	18.33	9.93	1.59
	82.26	31.23	66.86	0.00	0.0600	10.40	457.6	393.58	0.0619	483.9	8.710	18.31	9.90	1.59
	83.26	31.27	66.86	0.00	0.0598	10.37	456.1	392.37	0.0607	477.1	8.588	18.06	9.69	1.59
	84.26	31.23	66.87	-0.00	0.0600	10.40	457.7	393.67	0.0615	481.5	8.666	18.22	9.83	1.59
	85.25	31.23	66.84	0.00	0.0600	10.40	457.5	393.65	0.0619	484.9	8.729	18.36	9.93	1.60
	86.27	31.27	66.87	0.00	0.0600	10.41	457.9	393.90	0.0618	489.1	8.804	18.51	10.06	1.59
	87.25	31.29	66.87	0.00	0.0600	10.40	457.6	393.65	0.0624	494.0	8.892	18.70	10.22	1.59
	88.25	31.25	66.89	0.00	0.0600	10.40	457.4	393.29	0.0621	487.3	8.772	18.44	10.01	1.59
	89.25	31.27	66.84	0.00	0.0599	10.37	456.3	392.63	0.0610	481.0	8.658	18.21	9.82	1.59
	90.26	31.23	66.86	-0.00	0.0600	10.38	456.8	392.90	0.0613	480.1	8.642	18.17	9.79	1.60
	91.26	31.23	66.87	0.00	0.0599	10.38	456.9	392.99	0.0615	484.0	8.712	18.32	9.91	1.60
	92.28	31.25	66.86	-0.00	0.0599	10.39	457.1	393.23	0.0621	491.3	8.844	18.60	10.13	1.60
	93.27	31.22	66.87	-0.00	0.0599	10.37	456.4	392.55	0.0619	487.3	8.771	18.44	10.01	1.59
	94.33	31.29	66.86	0.00	0.0598	10.37	456.3	392.57	0.0604	476.2	8.571	18.03	9.67	1.60
	95.25	31.27	66.84	0.00	0.0598	10.35	455.5	391.97	0.0610	472.8	8.511	17.90	9.56	1.59
	96.25	31.25	66.84	0.00	0.0599	10.38	456.6	392.91	0.0614	485.9	8.746	18.40	9.97	1.60
	97.34	31.29	66.86	0.00	0.0600	10.42	458.3	394.26	0.0616	485.4	8.738	18.38	9.95	1.60
	98.25	31.28	66.84	0.00	0.0600	10.41	458.0	394.18	0.0613	484.0	8.711	18.33	9.91	1.59
	99.25	31.25	66.84	0.00	0.0600	10.40	457.7	393.85	0.0609	477.7	8.598	18.09	9.71	1.59
	100.25	31.25	66.87	0.00	0.0600	10.39	457.3	393.32	0.0617	480.0	8.641	18.17	9.79	1.59
	101.26	31.25	66.87	-0.00	0.0599	10.39	457.1	393.22	0.0622	489.7	8.815	18.53	10.08	1.60
	102.24	31.20	66.87	-0.00	0.0599	10.38	456.8	392.83	0.0618	488.0	8.784	18.47	10.03	1.60
	103.26	31.22	66.84	0.00	0.0598	10.36	455.8	392.17	0.0614	480.0	8.640	18.17	9.78	1.60
	104.27	31.23	66.89	0.00	0.0599	10.39	457.0	392.91	0.0623	492.0	8.856	18.61	10.15	1.59
	105.25	31.20	66.87	0.00	0.0599	10.37	456.5	392.60	0.0623	495.7	8.922	18.76	10.26	1.59
	106.25	31.26	66.86	0.00	0.0599	10.37	456.3	392.53	0.0626	493.5	8.884	18.68	10.20	1.59
	107.25	31.19	66.84	0.00	0.0598	10.35	455.6	391.96	0.0626	496.1	8.929	18.78	10.27	1.59
	108.33	31.19	66.84	0.00	0.0599	10.37	456.2	392.51	0.0626	496.4	8.935	18.79	10.28	1.60
	109.25	31.23	66.86	0.00	0.0599	10.37	456.1	392.33	0.0627	496.3	8.934	18.78	10.28	1.60
	110.28	31.23	66.85	-0.00	0.0599	10.35	455.3	391.75	0.0633	504.0	9.072	19.08	10.51	1.59
	111.26	31.23	66.84	0.00	0.0598	10.36	455.6	392.06	0.0633	504.9	9.088	19.11	10.54	1.59
	112.26	31.23	66.82	-0.00	0.0596	10.29	452.8	389.77	0.0632	501.0	9.018	18.97	10.42	1.59
	113.24	31.21	66.86	0.00	0.0596	10.32	453.9	390.44	0.0636	506.4	9.114	19.16	10.58	1.60
	114.26	31.21	66.85	0.00	0.0596	10.28	452.2	389.09	0.0628	494.2	8.896	18.71	10.22	1.59
	115.32	31.22	66.84	0.00	0.0597	10.32	454.3	390.85	0.0636	506.4	9.115	19.17	10.58	1.60
	116.24	31.23	66.82	0.00	0.0595	10.30	453.3	390.18	0.0630	502.8	9.050	19.04	10.48	1.60
	117.27	31.19	66.87	-0.00	0.0596	10.31	453.8	390.25	0.0634	504.0	9.072	19.07	10.51	1.59
	118.27	31.19	66.87	-0.00	0.0596	10.30	453.2	389.77	0.0629	498.6	8.975	18.87	10.35	1.59
	119.25	31.14	66.82	0.00	0.0595	10.30	453.1	389.89	0.0633	504.2	9.076	19.09	10.51	1.59
	120.26	31.19	66.89	0.00	0.0594	10.29	452.9	389.38	0.0632	506.3	9.113	19.15	10.58	1.60
	121.26	31.23	66.82	0.00	0.0595	10.27	452.0	389.05	0.0644	509.2	9.165	19.28	10.67	1.59
	122.27	31.25	66.86	-0.00	0.0594	10.27	452.0	388.81	0.0632	503.1	9.055	19.04	10.49	1.59
	123.26	31.27	66.87	0.00	0.0596	10.32	454.2	390.75	0.0644	509.9	9.178	19.30	10.69	1.60
	124.25	31.31	66.87	0.00	0.0595	10.29	452.6	389.36	0.0643	515.7	9.282	19.52	10.86	1.59
