Jul 28 2015 at 16:21:34
Frequency: 1.00Hz.
CO2
Zero:  Value:0.95  Date:18 Mar 2005	 at 07:22:33	
Span:  Value:1.00  Date:18 Mar 2005	 at 07:25:09	
H2O
Zero:  Value:0.71  Date:18 Mar 2005	 at 07:52:31	
Span:  Value:0.99  Date:18 Mar 2005	 at 11:44:01	
	Relative Time	Temperature	Pressure	Aux Input	CO2 Absorptance	CO2 mmol/m3	CO2 mg/m3	CO2 umol/mol	H2O Absorptance	H2O mmol/m3	H2O g/m3	H2O mmol/mol	H2O(°C)	Cooler Voltage
	0.48	32.84	66.91	0.00	0.0610	10.62	467.3	403.81	0.0560	420.9	7.577	16.00	7.92	1.59
	1.48	32.85	66.87	0.00	0.0614	10.73	472.0	408.13	0.0536	392.9	7.073	14.95	6.91	1.59
	2.48	32.85	66.90	0.00	0.0615	10.73	472.3	408.20	0.0544	402.3	7.241	15.30	7.26	1.59
	3.49	32.89	66.87	0.00	0.0626	11.01	484.6	419.12	0.0530	385.7	6.942	14.67	6.64	1.60
	4.55	32.84	66.89	0.00	0.0628	11.04	485.7	419.80	0.0522	382.8	6.890	14.56	6.53	1.60
	5.48	32.88	66.89	0.00	0.0628	11.03	485.5	419.68	0.0521	380.6	6.850	14.48	6.45	1.59
	6.49	32.85	66.87	0.00	0.0631	11.08	487.5	421.54	0.0522	381.8	6.873	14.53	6.50	1.59
	7.49	32.87	66.92	-0.00	0.0626	11.00	483.9	418.17	0.0508	369.1	6.643	14.03	6.00	1.60
	8.47	32.85	66.87	0.00	0.0623	10.93	480.7	415.66	0.0505	363.2	6.537	13.82	5.77	1.59
	9.48	32.88	66.89	0.00	0.0623	10.92	480.4	415.24	0.0503	363.0	6.533	13.81	5.76	1.60
	10.48	32.83	66.87	0.00	0.0622	10.89	479.2	414.28	0.0498	359.9	6.479	13.69	5.64	1.60
	11.47	32.88	66.87	0.00	0.0622	10.91	480.1	415.16	0.0500	361.8	6.512	13.76	5.71	1.59
	12.50	32.85	66.87	-0.00	0.0623	10.91	480.0	415.02	0.0499	359.1	6.464	13.66	5.61	1.59
	13.56	32.85	66.90	0.00	0.0622	10.91	479.9	414.79	0.0499	359.9	6.479	13.69	5.64	1.59
	14.48	32.85	66.89	-0.00	0.0623	10.91	480.0	414.88	0.0499	358.3	6.450	13.63	5.58	1.59
	15.55	32.87	66.87	-0.00	0.0622	10.89	479.4	414.53	0.0497	357.9	6.443	13.62	5.56	1.60
	16.50	32.87	66.87	-0.00	0.0622	10.89	479.2	414.41	0.0494	353.5	6.364	13.45	5.38	1.59
	17.49	32.84	66.87	0.00	0.0623	10.90	479.7	414.81	0.0493	353.8	6.369	13.46	5.39	1.60
	18.49	32.85	66.87	0.00	0.0620	10.87	478.1	413.42	0.0493	353.2	6.358	13.44	5.37	1.59
	19.48	32.86	66.87	0.00	0.0621	10.86	478.1	413.38	0.0493	353.5	6.363	13.45	5.38	1.59
	20.48	32.83	66.86	0.00	0.0621	10.86	477.9	413.21	0.0493	353.6	6.366	13.45	5.39	1.59
	21.50	32.84	66.87	-0.00	0.0621	10.86	478.0	413.31	0.0491	351.4	6.326	13.37	5.30	1.60
	22.48	32.86	66.89	0.00	0.0620	10.85	477.5	412.75	0.0491	351.7	6.331	13.38	5.31	1.60
	23.49	32.85	66.87	-0.00	0.0619	10.83	476.4	411.95	0.0490	350.3	6.306	13.33	5.25	1.59
	24.49	32.87	66.89	-0.00	0.0619	10.82	476.2	411.65	0.0491	350.8	6.314	13.34	5.27	1.59
	25.49	32.83	66.89	0.00	0.0618	10.81	475.7	411.17	0.0485	346.7	6.241	13.19	5.10	1.59
	26.49	32.85	66.89	-0.00	0.0619	10.83	476.5	411.93	0.0488	347.0	6.245	13.20	5.11	1.59
	27.49	32.80	66.87	-0.00	0.0621	10.86	477.8	413.12	0.0491	350.3	6.305	13.32	5.25	1.60
	28.49	32.80	66.87	-0.00	0.0622	10.89	479.0	414.11	0.0495	354.8	6.386	13.50	5.43	1.59
	29.50	32.81	66.89	-0.00	0.0619	10.83	476.5	411.85	0.0489	349.3	6.287	13.28	5.20	1.59
	30.50	32.84	66.87	0.00	0.0620	10.85	477.2	412.63	0.0490	350.9	6.315	13.35	5.27	1.60
	31.48	32.80	66.92	0.00	0.0620	10.85	477.4	412.40	0.0491	351.0	6.318	13.34	5.28	1.60
	32.48	32.81	66.89	0.00	0.0621	10.86	478.0	413.12	0.0494	352.7	6.349	13.41	5.35	1.60
	33.49	32.84	66.89	-0.00	0.0620	10.85	477.3	412.54	0.0492	351.9	6.334	13.38	5.31	1.60
	34.49	32.83	66.89	-0.00	0.0620	10.85	477.3	412.53	0.0492	352.5	6.345	13.41	5.34	1.60
	35.48	32.86	66.87	-0.00	0.0619	10.83	476.4	411.93	0.0490	350.7	6.312	13.34	5.27	1.60
	36.50	32.86	66.89	0.00	0.0619	10.84	476.8	412.18	0.0493	352.4	6.344	13.41	5.34	1.59
	37.50	32.86	66.87	-0.00	0.0622	10.89	479.2	414.38	0.0503	364.2	6.556	13.86	5.81	1.60
	38.50	32.85	66.82	-0.00	0.0621	10.87	478.2	413.83	0.0497	358.2	6.447	13.64	5.57	1.60
	39.48	32.85	66.87	0.00	0.0622	10.89	479.0	414.19	0.0501	361.1	6.500	13.74	5.69	1.60
	40.48	32.83	66.87	0.00	0.0621	10.87	478.4	413.61	0.0498	358.7	6.457	13.65	5.59	1.60
	41.50	32.81	66.87	-0.00	0.0621	10.87	478.1	413.33	0.0498	356.8	6.422	13.57	5.51	1.60
	42.48	32.87	66.87	-0.00	0.0621	10.86	477.8	413.17	0.0496	356.3	6.414	13.56	5.50	1.60
	43.48	32.82	66.89	-0.00	0.0622	10.89	479.1	414.09	0.0505	363.2	6.537	13.81	5.77	1.60
	44.49	32.86	66.89	0.00	0.0622	10.91	479.8	414.79	0.0508	368.6	6.635	14.02	5.98	1.60
	45.51	32.86	66.87	-0.00	0.0623	10.91	479.9	414.97	0.0510	369.7	6.654	14.06	6.03	1.60
	46.49	32.86	66.87	-0.00	0.0623	10.91	479.9	414.96	0.0511	370.8	6.675	14.11	6.07	1.60
	47.47	32.86	66.87	0.00	0.0622	10.90	479.7	414.80	0.0510	369.5	6.651	14.06	6.02	1.60
	48.50	32.82	66.87	-0.00	0.0622	10.90	479.8	414.81	0.0512	370.7	6.673	14.10	6.07	1.60
	49.55	32.85	66.87	0.00	0.0622	10.89	479.3	414.46	0.0511	370.1	6.662	14.08	6.04	1.60
	50.48	32.83	66.87	0.00	0.0623	10.91	480.0	415.02	0.0510	371.2	6.681	14.12	6.08	1.60
	51.48	32.86	66.87	0.00	0.0622	10.90	479.7	414.81	0.0510	370.3	6.666	14.09	6.05	1.60
	52.49	32.83	66.89	0.00	0.0623	10.91	480.1	414.98	0.0514	373.3	6.719	14.20	6.16	1.60
	53.49	32.86	66.87	0.00	0.0623	10.92	480.4	415.41	0.0516	376.2	6.772	14.31	6.28	1.60
	54.48	32.86	66.89	0.00	0.0623	10.93	480.7	415.57	0.0517	376.9	6.785	14.34	6.31	1.60
	55.49	32.83	66.87	-0.00	0.0623	10.92	480.5	415.46	0.0516	375.6	6.761	14.29	6.26	1.60
	56.49	32.86	66.89	-0.00	0.0624	10.93	480.9	415.71	0.0515	376.2	6.772	14.31	6.28	1.60
	57.49	32.81	66.87	0.00	0.0623	10.92	480.6	415.55	0.0514	375.0	6.751	14.27	6.23	1.60
	58.50	32.83	66.87	-0.00	0.0623	10.91	480.2	415.22	0.0512	372.4	6.703	14.17	6.13	1.60
	59.48	32.83	66.89	0.00	0.0623	10.90	479.7	414.64	0.0510	370.0	6.660	14.07	6.04	1.60
	60.48	32.85	66.86	0.00	0.0622	10.89	479.3	414.44	0.0508	368.1	6.625	14.00	5.96	1.60
	61.48	32.83	66.89	0.00	0.0621	10.88	478.6	413.62	0.0505	365.7	6.583	13.91	5.87	1.60
	62.48	32.88	66.89	0.00	0.0621	10.88	478.7	413.81	0.0507	368.0	6.623	14.00	5.96	1.60
	63.48	32.85	66.84	0.00	0.0622	10.89	479.1	414.45	0.0510	369.9	6.658	14.08	6.03	1.60
	64.47	32.85	66.87	0.00	0.0621	10.89	478.9	414.14	0.0509	369.6	6.652	14.06	6.02	1.60
	65.49	32.85	66.87	-0.00	0.0621	10.88	478.6	413.81	0.0508	368.1	6.626	14.01	5.96	1.60
	66.49	32.85	66.87	0.00	0.0623	10.91	480.0	415.04	0.0516	374.4	6.739	14.24	6.21	1.60
	67.47	32.88	66.89	0.00	0.0623	10.93	480.9	415.73	0.0518	377.5	6.794	14.36	6.33	1.60
	68.50	32.88	66.89	-0.00	0.0623	10.92	480.6	415.49	0.0516	377.0	6.785	14.34	6.31	1.60
	69.48	32.83	66.87	0.00	0.0622	10.89	479.2	414.31	0.0514	374.6	6.742	14.25	6.22	1.60
	70.54	32.83	66.87	0.00	0.0619	10.84	477.0	412.45	0.0508	369.0	6.642	14.04	6.00	1.60
	71.46	32.83	66.89	0.00	0.0621	10.85	477.5	412.75	0.0512	370.2	6.663	14.08	6.04	1.60
	72.48	32.85	66.87	0.00	0.0623	10.91	480.0	415.08	0.0519	378.5	6.813	14.40	6.37	1.60
	73.48	32.88	66.89	0.00	0.0624	10.93	480.9	415.73	0.0519	380.4	6.847	14.47	6.44	1.60
	74.49	32.83	66.89	-0.00	0.0622	10.91	480.0	414.89	0.0514	375.6	6.761	14.28	6.26	1.60
	75.47	32.85	66.89	0.00	0.0622	10.89	479.1	414.11	0.0510	370.9	6.676	14.11	6.07	1.60
	76.49	32.82	66.89	0.00	0.0621	10.88	478.7	413.78	0.0509	370.3	6.666	14.08	6.05	1.60
	77.55	32.83	66.89	0.00	0.0621	10.86	477.9	413.05	0.0507	366.0	6.588	13.92	5.88	1.60
	78.47	32.84	66.87	0.00	0.0621	10.88	478.7	413.86	0.0507	368.7	6.636	14.02	5.99	1.60
	79.50	32.79	66.89	0.00	0.0621	10.88	478.6	413.63	0.0510	368.7	6.637	14.02	5.99	1.60
	80.48	32.82	66.89	0.00	0.0621	10.87	478.3	413.41	0.0510	368.7	6.636	14.02	5.99	1.60
	81.48	32.82	66.87	0.00	0.0621	10.88	478.6	413.76	0.0510	370.3	6.665	14.09	6.05	1.60
	82.49	32.80	66.92	0.00	0.0621	10.87	478.2	413.15	0.0511	368.3	6.629	14.00	5.97	1.60
	83.48	32.76	66.84	-0.00	0.0621	10.83	476.6	412.19	0.0510	362.8	6.530	13.80	5.75	1.60
	84.55	32.79	66.89	0.00	0.0622	10.91	479.9	414.76	0.0512	375.7	6.763	14.29	6.26	1.60
	85.49	32.81	66.90	-0.00	0.0622	10.90	479.5	414.37	0.0513	371.5	6.686	14.12	6.09	1.60
	86.49	32.81	66.87	-0.00	0.0621	10.87	478.2	413.43	0.0511	370.5	6.668	14.09	6.05	1.60
	87.48	32.79	66.90	-0.00	0.0621	10.89	479.1	414.00	0.0511	372.1	6.697	14.15	6.12	1.60
	88.48	32.80	66.89	-0.00	0.0622	10.90	479.4	414.35	0.0515	372.8	6.710	14.18	6.14	1.60
	89.47	32.81	66.87	0.00	0.0624	10.94	481.1	415.99	0.0519	380.6	6.852	14.48	6.45	1.60
	90.57	32.85	66.90	0.00	0.0624	10.94	481.4	416.11	0.0522	381.8	6.873	14.52	6.49	1.60
	91.50	32.86	66.94	0.00	0.0624	10.94	481.3	415.73	0.0521	381.8	6.873	14.51	6.50	1.60
	92.48	32.83	66.87	0.00	0.0624	10.96	482.1	416.81	0.0524	385.5	6.939	14.67	6.63	1.60
	93.48	32.88	66.92	0.00	0.0623	10.91	479.9	414.72	0.0519	379.1	6.825	14.42	6.39	1.60
	94.49	32.85	66.89	0.00	0.0626	10.97	482.7	417.20	0.0529	387.8	6.980	14.75	6.72	1.60
	95.47	32.88	66.92	0.00	0.0625	10.98	483.1	417.42	0.0529	389.8	7.016	14.82	6.80	1.60
	96.50	32.91	66.90	-0.00	0.0626	10.97	482.9	417.45	0.0530	388.7	6.997	14.79	6.76	1.60
	97.56	32.89	66.89	0.00	0.0625	10.96	482.3	416.94	0.0531	389.3	7.007	14.81	6.78	1.60
	98.48	32.90	66.92	-0.00	0.0626	10.97	482.9	417.29	0.0533	394.3	7.097	14.99	6.96	1.60
	99.48	32.95	66.89	0.00	0.0625	10.97	482.8	417.42	0.0531	392.6	7.067	14.94	6.90	1.60
	100.48	32.87	66.87	0.00	0.0623	10.93	480.9	415.86	0.0522	383.8	6.909	14.60	6.57	1.60
	101.48	32.85	66.89	-0.00	0.0622	10.90	479.6	414.55	0.0516	376.2	6.772	14.31	6.28	1.60
	102.46	32.88	66.89	0.00	0.0622	10.90	479.5	414.49	0.0516	375.4	6.758	14.28	6.25	1.61
	103.47	32.83	66.84	0.00	0.0624	10.93	480.8	415.88	0.0523	383.0	6.894	14.58	6.54	1.60
	104.47	32.83	66.87	0.00	0.0624	10.95	481.6	416.41	0.0526	385.9	6.946	14.68	6.65	1.60
	105.47	32.81	66.91	0.00	0.0626	10.98	483.0	417.32	0.0530	389.8	7.017	14.82	6.79	1.60
	106.49	32.86	66.87	0.00	0.0626	10.98	483.2	417.81	0.0529	389.3	7.008	14.81	6.78	1.60
	107.50	32.83	66.89	-0.00	0.0625	10.95	481.7	416.39	0.0524	384.8	6.926	14.63	6.61	1.60
	108.56	32.86	66.88	0.00	0.0624	10.94	481.5	416.34	0.0525	384.2	6.915	14.62	6.58	1.60
	109.50	32.83	66.87	0.00	0.0625	10.96	482.4	417.07	0.0530	390.0	7.019	14.84	6.80	1.60
	110.48	32.83	66.84	0.00	0.0625	10.96	482.3	417.17	0.0531	392.3	7.061	14.93	6.89	1.60
	111.49	32.86	66.90	-0.00	0.0624	10.94	481.6	416.22	0.0530	389.8	7.016	14.82	6.79	1.60
	112.56	32.81	66.89	0.00	0.0624	10.95	481.6	416.24	0.0529	390.0	7.020	14.83	6.80	1.60
	113.47	32.83	66.89	0.00	0.0625	10.95	481.9	416.50	0.0530	390.8	7.034	14.86	6.83	1.60
	114.47	32.82	66.90	0.00	0.0624	10.95	481.8	416.42	0.0529	389.8	7.017	14.82	6.79	1.61
	115.47	32.82	66.87	0.00	0.0623	10.92	480.5	415.41	0.0525	385.6	6.941	14.67	6.64	1.60
	116.49	32.87	66.87	-0.00	0.0622	10.91	480.2	415.22	0.0523	384.1	6.913	14.61	6.58	1.60
	117.48	32.88	66.87	0.00	0.0623	10.91	480.2	415.29	0.0523	382.9	6.892	14.57	6.54	1.60
	118.48	32.85	66.89	0.00	0.0622	10.91	480.2	415.04	0.0523	382.7	6.888	14.55	6.53	1.60
