Jul 28 2015 at 14:39:58
Frequency: 1.00Hz.
CO2
Zero:  Value:0.95  Date:18 Mar 2005	 at 07:22:33	
Span:  Value:1.00  Date:18 Mar 2005	 at 07:25:09	
H2O
Zero:  Value:0.71  Date:18 Mar 2005	 at 07:52:31	
Span:  Value:0.99  Date:18 Mar 2005	 at 11:44:01	
	Relative Time	Temperature	Pressure	Aux Input	CO2 Absorptance	CO2 mmol/m3	CO2 mg/m3	CO2 umol/mol	H2O Absorptance	H2O mmol/m3	H2O g/m3	H2O mmol/mol	H2O(°C)	Cooler Voltage
	0.03	33.72	67.73	0.00	0.0618	10.77	474.0	405.77	0.0433	294.0	5.292	11.08	2.80	1.62
	1.04	33.75	67.73	0.00	0.0616	10.74	472.4	404.51	0.0427	293.2	5.277	11.04	2.76	1.62
	2.04	33.75	67.75	0.00	0.0616	10.71	471.3	403.40	0.0423	286.4	5.155	10.79	2.43	1.61
	3.04	33.76	67.73	0.00	0.0617	10.71	471.4	403.63	0.0427	288.2	5.187	10.86	2.52	1.61
	4.04	33.77	67.75	0.00	0.0616	10.71	471.1	403.23	0.0426	289.3	5.207	10.90	2.57	1.61
	5.05	33.75	67.73	0.00	0.0613	10.67	469.4	401.88	0.0426	288.2	5.188	10.86	2.52	1.61
	6.07	33.71	67.73	-0.00	0.0614	10.68	470.0	402.33	0.0425	288.7	5.196	10.87	2.54	1.62
	7.07	33.71	67.68	0.00	0.0614	10.67	469.4	402.17	0.0426	288.7	5.197	10.88	2.54	1.62
	8.06	33.64	67.75	-0.00	0.0615	10.70	470.9	402.90	0.0431	293.2	5.278	11.04	2.75	1.61
	9.05	33.62	67.70	0.00	0.0613	10.66	469.2	401.69	0.0432	293.3	5.280	11.05	2.76	1.61
	10.06	33.64	67.68	-0.00	0.0615	10.69	470.2	402.72	0.0436	296.2	5.331	11.16	2.90	1.61
	11.06	33.66	67.73	-0.00	0.0616	10.71	471.4	403.48	0.0446	305.0	5.489	11.49	3.31	1.61
	12.06	33.60	67.73	-0.00	0.0618	10.75	472.8	404.61	0.0462	321.7	5.791	12.11	4.07	1.62
	13.06	33.61	67.72	-0.00	0.0617	10.76	473.5	405.25	0.0467	328.4	5.911	12.37	4.36	1.62
	14.05	33.66	67.75	0.00	0.0617	10.74	472.7	404.47	0.0472	330.8	5.955	12.46	4.47	1.61
	15.04	33.68	67.73	0.00	0.0617	10.73	472.2	404.19	0.0471	330.0	5.940	12.43	4.43	1.62
	16.05	33.68	67.72	0.00	0.0617	10.74	472.5	404.46	0.0481	330.3	5.946	12.44	4.45	1.61
	17.04	33.68	67.73	0.00	0.0617	10.73	472.2	404.21	0.0475	335.2	6.033	12.62	4.66	1.61
	18.05	33.71	67.73	0.00	0.0616	10.71	471.3	403.50	0.0475	332.1	5.978	12.51	4.52	1.61
	19.03	33.68	67.73	0.00	0.0616	10.72	471.7	403.80	0.0481	339.5	6.111	12.79	4.84	1.61
	20.05	33.68	67.73	0.00	0.0615	10.71	471.1	403.27	0.0489	347.2	6.250	13.08	5.16	1.61
	21.04	33.73	67.73	0.00	0.0615	10.69	470.5	402.77	0.0488	345.3	6.215	13.01	5.08	1.61
	22.12	33.75	67.73	-0.00	0.0615	10.71	471.1	403.40	0.0488	347.3	6.252	13.08	5.17	1.61
	23.04	33.75	67.73	0.00	0.0614	10.68	469.8	402.21	0.0486	345.5	6.219	13.02	5.09	1.61
	24.07	33.76	67.73	-0.00	0.0616	10.72	471.7	403.91	0.0493	349.4	6.290	13.17	5.26	1.61
	25.05	33.75	67.73	-0.00	0.0616	10.73	472.3	404.40	0.0497	356.8	6.423	13.44	5.56	1.61
	26.05	33.78	67.73	0.00	0.0616	10.72	471.7	403.90	0.0498	355.7	6.403	13.40	5.51	1.61
	27.03	33.78	67.73	0.00	0.0616	10.72	471.8	404.03	0.0500	360.1	6.481	13.57	5.69	1.61
	28.06	33.73	67.70	-0.00	0.0615	10.68	470.1	402.66	0.0500	355.6	6.401	13.40	5.51	1.61
	29.05	33.76	67.73	-0.00	0.0617	10.75	472.8	404.87	0.0510	369.0	6.641	13.90	6.04	1.61
	30.06	33.76	67.73	-0.00	0.0618	10.76	473.4	405.36	0.0518	376.0	6.767	14.16	6.31	1.61
	31.04	33.71	67.73	0.00	0.0619	10.77	473.9	405.67	0.0529	384.2	6.916	14.47	6.63	1.61
	32.04	33.70	67.73	0.00	0.0617	10.75	472.9	404.83	0.0523	383.2	6.898	14.43	6.59	1.61
	33.04	33.70	67.73	0.00	0.0617	10.73	471.9	404.00	0.0525	379.4	6.829	14.29	6.44	1.61
	34.04	33.68	67.73	0.00	0.0616	10.71	471.3	403.46	0.0527	382.2	6.879	14.39	6.55	1.61
	35.04	33.68	67.73	-0.00	0.0617	10.75	473.1	404.96	0.0531	389.4	7.010	14.67	6.82	1.62
	36.05	33.69	67.73	-0.00	0.0618	10.78	474.3	405.98	0.0543	400.5	7.209	15.09	7.23	1.61
	37.03	33.66	67.70	0.00	0.0618	10.76	473.6	405.57	0.0541	400.8	7.214	15.10	7.24	1.61
	38.05	33.69	67.75	-0.00	0.0618	10.76	473.4	405.15	0.0543	402.4	7.244	15.15	7.30	1.61
	39.05	33.64	67.73	-0.00	0.0617	10.75	473.0	404.82	0.0547	403.9	7.271	15.21	7.35	1.61
	40.05	33.62	67.73	0.00	0.0617	10.75	473.0	404.76	0.0548	406.3	7.313	15.30	7.44	1.62
	41.04	33.62	67.75	0.00	0.0617	10.74	472.7	404.43	0.0547	407.9	7.341	15.35	7.49	1.61
	42.04	33.63	67.73	0.00	0.0617	10.75	472.8	404.69	0.0550	409.5	7.372	15.42	7.55	1.61
	43.04	33.63	67.72	0.00	0.0617	10.75	473.2	405.02	0.0552	410.8	7.395	15.47	7.60	1.61
	44.05	33.62	67.73	-0.00	0.0616	10.73	472.1	404.07	0.0552	411.6	7.409	15.50	7.63	1.61
	45.04	33.61	67.73	0.00	0.0617	10.73	472.0	403.99	0.0555	412.8	7.430	15.54	7.67	1.61
	46.05	33.64	67.76	0.00	0.0616	10.73	472.1	403.89	0.0560	418.9	7.540	15.77	7.89	1.62
	47.06	33.64	67.72	-0.00	0.0616	10.71	471.4	403.47	0.0562	421.9	7.593	15.89	7.99	1.62
	48.05	33.64	67.73	0.00	0.0617	10.73	472.0	404.00	0.0579	438.3	7.889	16.51	8.55	1.61
	49.06	33.66	67.75	-0.00	0.0616	10.72	471.8	403.68	0.0575	436.7	7.861	16.44	8.50	1.61
	50.05	33.69	67.75	-0.00	0.0616	10.70	470.7	402.79	0.0577	434.0	7.812	16.34	8.41	1.61
	51.04	33.71	67.73	0.00	0.0615	10.68	470.1	402.49	0.0583	442.6	7.967	16.67	8.70	1.61
	52.04	33.68	67.75	0.00	0.0615	10.71	471.0	403.10	0.0589	448.2	8.068	16.88	8.89	1.62
	53.05	33.67	67.70	-0.00	0.0617	10.73	472.0	404.21	0.0599	461.0	8.298	17.37	9.30	1.62
	54.05	33.62	67.72	-0.00	0.0616	10.72	471.7	403.77	0.0586	447.8	8.060	16.86	8.87	1.61
	55.05	33.62	67.73	-0.00	0.0616	10.73	471.9	403.89	0.0595	452.9	8.152	17.05	9.03	1.62
	56.13	33.60	67.70	-0.00	0.0617	10.73	472.2	404.27	0.0604	462.5	8.325	17.42	9.35	1.61
	57.03	33.65	67.72	0.00	0.0617	10.74	472.4	404.38	0.0606	471.3	8.483	17.75	9.63	1.62
	58.06	33.62	67.73	-0.00	0.0616	10.70	470.8	402.98	0.0602	461.4	8.305	17.37	9.31	1.62
	59.05	33.67	67.73	-0.00	0.0617	10.75	472.9	404.77	0.0618	482.2	8.680	18.16	9.97	1.62
	60.04	33.60	67.73	0.00	0.0616	10.74	472.6	404.41	0.0612	481.6	8.668	18.13	9.95	1.61
	61.04	33.62	67.76	0.00	0.0616	10.71	471.3	403.23	0.0612	475.8	8.564	17.91	9.77	1.61
	62.04	33.58	67.75	0.00	0.0617	10.74	472.4	404.11	0.0614	478.0	8.605	17.99	9.84	1.61
	63.05	33.56	67.73	0.00	0.0616	10.72	471.6	403.56	0.0615	479.5	8.631	18.05	9.88	1.61
	64.05	33.60	67.72	-0.00	0.0616	10.73	472.3	404.21	0.0616	481.9	8.674	18.15	9.96	1.62
	65.05	33.59	67.73	0.00	0.0617	10.73	472.2	404.05	0.0623	487.0	8.766	18.34	10.11	1.62
	66.03	33.62	67.73	0.00	0.0616	10.73	472.0	403.92	0.0621	488.0	8.784	18.38	10.15	1.61
	67.05	33.63	67.70	0.00	0.0616	10.71	471.1	403.32	0.0617	482.1	8.678	18.16	9.97	1.61
	68.05	33.66	67.73	0.00	0.0616	10.73	472.1	404.07	0.0626	490.9	8.837	18.49	10.24	1.61
	69.05	33.71	67.73	0.00	0.0616	10.72	471.7	403.83	0.0624	490.4	8.827	18.47	10.22	1.62
	70.04	33.71	67.73	0.00	0.0616	10.72	471.6	403.77	0.0632	498.2	8.968	18.77	10.46	1.62
	71.04	33.72	67.75	0.00	0.0616	10.72	471.5	403.54	0.0635	502.6	9.047	18.93	10.59	1.62
	72.04	33.73	67.72	0.00	0.0616	10.70	471.0	403.23	0.0639	505.9	9.106	19.06	10.69	1.62
	73.04	33.68	67.75	0.00	0.0616	10.71	471.3	403.35	0.0642	508.8	9.158	19.16	10.78	1.62
	74.04	33.68	67.77	0.00	0.0615	10.70	470.9	402.87	0.0634	503.0	9.054	18.93	10.60	1.61
	75.05	33.76	67.73	0.00	0.0615	10.70	470.9	403.17	0.0636	501.7	9.030	18.90	10.57	1.62
	76.05	33.73	67.73	-0.00	0.0614	10.68	470.1	402.45	0.0637	505.5	9.099	19.04	10.68	1.62
	77.05	33.72	67.78	0.00	0.0616	10.71	471.4	403.31	0.0649	515.8	9.284	19.41	10.98	1.62
	78.05	33.73	67.73	-0.00	0.0615	10.69	470.3	402.65	0.0643	512.6	9.226	19.31	10.89	1.61
	79.05	33.73	67.73	0.00	0.0613	10.65	468.7	401.32	0.0640	507.9	9.142	19.13	10.75	1.62
	80.03	33.78	67.77	0.00	0.0616	10.72	471.8	403.78	0.0644	512.7	9.229	19.30	10.90	1.62
	81.06	33.76	67.75	-0.00	0.0616	10.72	471.8	403.82	0.0646	514.1	9.254	19.36	10.94	1.62
	82.04	33.71	67.75	0.00	0.0616	10.72	471.7	403.70	0.0648	515.9	9.286	19.43	10.98	1.62
	83.04	33.68	67.73	0.00	0.0617	10.73	472.3	404.29	0.0652	525.3	9.455	19.78	11.25	1.62
	84.05	33.76	67.73	0.00	0.0617	10.73	472.1	404.19	0.0654	519.6	9.354	19.58	11.10	1.62
	85.04	33.74	67.70	0.00	0.0616	10.73	472.2	404.41	0.0649	519.6	9.354	19.58	11.10	1.62
	86.05	33.78	67.75	0.00	0.0616	10.72	471.6	403.71	0.0648	517.1	9.308	19.48	11.02	1.62
	87.05	33.74	67.72	-0.00	0.0615	10.72	471.6	403.79	0.0648	517.5	9.314	19.50	11.03	1.62
	88.05	33.76	67.75	-0.00	0.0615	10.70	470.9	403.07	0.0653	521.6	9.389	19.65	11.15	1.62
	89.05	33.75	67.73	-0.00	0.0615	10.71	471.1	403.37	0.0652	521.1	9.380	19.63	11.14	1.62
	90.06	33.64	67.73	0.00	0.0614	10.67	469.5	401.87	0.0647	516.6	9.299	19.46	11.00	1.62
	91.04	33.62	67.73	0.00	0.0615	10.68	470.0	402.28	0.0649	518.3	9.330	19.52	11.05	1.62
	92.04	33.59	67.80	0.00	0.0616	10.70	470.8	402.46	0.0653	520.4	9.368	19.58	11.11	1.62
	93.05	33.59	67.76	-0.00	0.0616	10.71	471.4	403.28	0.0660	528.6	9.515	19.90	11.35	1.62
	94.05	33.52	67.73	-0.00	0.0617	10.74	472.3	404.13	0.0661	532.2	9.580	20.04	11.45	1.62
	95.05	33.50	67.73	-0.00	0.0617	10.74	472.5	404.16	0.0663	534.5	9.621	20.12	11.51	1.62
	96.03	33.47	67.73	0.00	0.0618	10.75	473.2	404.80	0.0663	533.9	9.610	20.10	11.49	1.62
	97.03	33.50	67.75	0.00	0.0617	10.74	472.5	404.12	0.0660	530.5	9.550	19.96	11.40	1.62
	98.06	33.48	67.73	-0.00	0.0617	10.73	472.1	403.89	0.0660	528.3	9.510	19.89	11.33	1.62
	99.06	33.47	67.73	-0.00	0.0618	10.75	473.1	404.73	0.0663	534.0	9.613	20.10	11.49	1.62
	100.04	33.52	67.73	0.00	0.0617	10.75	473.0	404.67	0.0663	533.4	9.600	20.08	11.48	1.62
	101.06	33.59	67.75	0.00	0.0617	10.74	472.7	404.37	0.0661	534.1	9.613	20.10	11.50	1.62
	102.06	33.60	67.73	-0.00	0.0617	10.74	472.8	404.57	0.0664	535.4	9.637	20.16	11.54	1.62
	103.05	33.60	67.73	-0.00	0.0617	10.74	472.4	404.32	0.0662	533.1	9.595	20.07	11.47	1.62
	104.05	33.62	67.73	-0.00	0.0617	10.74	472.4	404.28	0.0664	533.7	9.606	20.10	11.49	1.62
	105.05	33.62	67.75	0.00	0.0617	10.74	472.5	404.25	0.0665	536.3	9.653	20.19	11.57	1.62
	106.05	33.67	67.75	-0.00	0.0617	10.74	472.6	404.45	0.0668	540.5	9.729	20.35	11.69	1.62
	107.12	33.69	67.73	-0.00	0.0617	10.74	472.6	404.59	0.0668	541.0	9.738	20.38	11.70	1.62
	108.03	33.69	67.73	0.00	0.0616	10.72	471.6	403.73	0.0669	541.3	9.744	20.39	11.71	1.62
	109.12	33.66	67.75	0.00	0.0617	10.74	472.7	404.51	0.0672	543.3	9.779	20.45	11.76	1.62
	110.04	33.71	67.75	0.00	0.0617	10.73	472.0	403.96	0.0676	546.5	9.837	20.58	11.86	1.62
	111.04	33.71	67.73	0.00	0.0617	10.74	472.7	404.73	0.0682	555.1	9.992	20.91	12.09	1.62
	112.06	33.66	67.73	-0.00	0.0617	10.76	473.3	405.12	0.0685	563.2	10.137	21.21	12.31	1.62
	113.05	33.61	67.75	-0.00	0.0617	10.74	472.4	404.14	0.0687	560.6	10.090	21.10	12.24	1.62
	114.05	33.53	67.70	-0.00	0.0617	10.73	472.2	404.20	0.0684	554.8	9.987	20.90	12.08	1.62
	115.03	33.50	67.76	0.00	0.0616	10.72	471.8	403.44	0.0675	549.1	9.883	20.66	11.92	1.62
	116.05	33.45	67.73	-0.00	0.0618	10.73	472.2	403.96	0.0666	541.8	9.752	20.39	11.71	1.62
	117.05	33.41	67.75	0.00	0.0617	10.75	473.2	404.54	0.0680	558.4	10.052	21.01	12.17	1.62
	118.06	33.39	67.73	0.00	0.0616	10.73	472.0	403.67	0.0679	550.7	9.913	20.72	11.96	1.62
	119.04	33.43	67.73	0.00	0.0617	10.74	472.4	404.07	0.0678	552.7	9.949	20.80	12.01	1.62
	120.06	33.47	67.73	0.00	0.0617	10.73	472.3	404.01	0.0674	549.1	9.884	20.67	11.92	1.62
