Jul 28 2015 at 14:13:43
Frequency: 1.00Hz.
CO2
Zero:  Value:0.95  Date:18 Mar 2005	 at 07:22:33	
Span:  Value:1.00  Date:18 Mar 2005	 at 07:25:09	
H2O
Zero:  Value:0.71  Date:18 Mar 2005	 at 07:52:31	
Span:  Value:0.99  Date:18 Mar 2005	 at 11:44:01	
	Relative Time	Temperature	Pressure	Aux Input	CO2 Absorptance	CO2 mmol/m3	CO2 mg/m3	CO2 umol/mol	H2O Absorptance	H2O mmol/m3	H2O g/m3	H2O mmol/mol	H2O(°C)	Cooler Voltage
	0.39	32.31	67.72	0.00	0.0627	10.97	482.8	411.43	0.0373	239.5	4.311	8.98	-0.12	1.60
	1.40	32.34	67.70	-0.00	0.0627	10.99	483.5	412.23	0.0376	244.7	4.404	9.18	0.17	1.60
	2.42	32.35	67.75	-0.00	0.0627	10.97	482.8	411.40	0.0368	238.8	4.298	8.95	-0.16	1.59
	3.42	32.29	67.72	-0.00	0.0624	10.92	480.3	409.28	0.0372	241.1	4.339	9.04	-0.03	1.59
	4.42	32.32	67.70	-0.00	0.0624	10.92	480.6	409.79	0.0380	245.0	4.410	9.19	0.19	1.59
	5.47	32.36	67.70	-0.00	0.0624	10.92	480.4	409.59	0.0376	243.7	4.386	9.14	0.12	1.60
	6.49	32.37	67.70	0.00	0.0623	10.90	479.4	408.77	0.0378	245.3	4.415	9.20	0.21	1.59
	7.47	32.38	67.71	0.00	0.0623	10.86	478.0	407.57	0.0390	256.0	4.608	9.60	0.80	1.60
	8.38	32.40	67.73	0.00	0.0623	10.91	480.2	409.33	0.0403	266.0	4.788	9.98	1.33	1.59
	9.39	32.53	67.68	0.00	0.0622	10.86	478.0	407.96	0.0401	266.4	4.795	10.00	1.36	1.59
	10.39	32.54	67.70	0.00	0.0622	10.86	477.9	407.69	0.0401	266.2	4.792	9.99	1.35	1.59
	11.40	32.59	67.73	0.00	0.0620	10.83	476.3	406.28	0.0391	259.0	4.661	9.72	0.97	1.59
	12.39	32.56	67.72	0.00	0.0619	10.80	475.0	405.19	0.0381	250.4	4.508	9.40	0.50	1.60
	13.42	32.56	67.73	-0.00	0.0620	10.81	475.6	405.62	0.0386	252.9	4.551	9.49	0.64	1.59
	14.41	32.59	67.70	-0.00	0.0620	10.81	475.7	405.94	0.0388	253.7	4.567	9.53	0.69	1.59
	15.41	32.60	67.72	-0.00	0.0620	10.81	475.5	405.67	0.0389	255.3	4.595	9.58	0.77	1.59
	16.41	32.62	67.70	0.00	0.0620	10.81	475.6	405.88	0.0389	256.4	4.615	9.63	0.83	1.59
	17.39	32.64	67.70	0.00	0.0619	10.79	474.6	405.05	0.0399	263.3	4.740	9.89	1.20	1.59
	18.41	32.60	67.70	-0.00	0.0618	10.78	474.5	404.87	0.0401	269.2	4.846	10.11	1.51	1.59
	19.39	32.54	67.72	0.00	0.0619	10.77	474.1	404.34	0.0410	273.7	4.927	10.27	1.74	1.59
	20.41	32.52	67.70	0.00	0.0618	10.77	473.9	404.34	0.0412	275.5	4.960	10.34	1.83	1.59
	21.40	32.54	67.70	-0.00	0.0619	10.78	474.2	404.61	0.0422	284.9	5.128	10.70	2.30	1.59
	22.40	32.58	67.70	0.00	0.0620	10.80	475.3	405.57	0.0426	287.3	5.171	10.79	2.42	1.59
	23.40	32.62	67.75	-0.00	0.0619	10.79	474.7	404.83	0.0426	287.7	5.178	10.79	2.44	1.59
	24.40	32.61	67.72	0.00	0.0618	10.78	474.4	404.72	0.0425	289.8	5.217	10.88	2.54	1.60
	25.40	32.61	67.70	0.00	0.0617	10.75	473.1	403.76	0.0430	294.0	5.292	11.04	2.75	1.59
	26.41	32.56	67.72	-0.00	0.0617	10.75	473.2	403.60	0.0437	297.3	5.352	11.16	2.90	1.59
	27.47	32.54	67.70	0.00	0.0618	10.75	473.1	403.62	0.0435	296.4	5.335	11.13	2.86	1.59
	28.42	32.54	67.73	-0.00	0.0617	10.74	472.7	403.13	0.0437	298.9	5.379	11.21	2.97	1.59
	29.41	32.52	67.72	-0.00	0.0618	10.76	473.4	403.76	0.0439	300.3	5.406	11.27	3.04	1.59
	30.42	32.50	67.70	-0.00	0.0618	10.76	473.2	403.70	0.0440	301.8	5.433	11.33	3.11	1.60
	31.40	32.55	67.71	0.00	0.0617	10.75	473.1	403.65	0.0442	303.1	5.455	11.38	3.17	1.59
	32.42	32.48	67.70	-0.00	0.0617	10.75	472.9	403.43	0.0446	306.1	5.509	11.49	3.31	1.59
	33.40	32.51	67.70	-0.00	0.0618	10.76	473.5	403.94	0.0452	311.0	5.598	11.67	3.53	1.59
	34.40	32.47	67.75	0.00	0.0616	10.74	472.5	402.74	0.0448	311.7	5.611	11.69	3.57	1.59
	35.40	32.46	67.68	-0.00	0.0617	10.74	472.4	403.10	0.0450	309.7	5.574	11.63	3.47	1.59
	36.41	32.46	67.72	-0.00	0.0617	10.75	473.2	403.49	0.0458	317.1	5.708	11.90	3.81	1.59
	37.39	32.44	67.70	0.00	0.0618	10.76	473.3	403.68	0.0468	323.1	5.815	12.12	4.07	1.59
	38.41	32.40	67.70	-0.00	0.0618	10.75	473.2	403.52	0.0472	328.3	5.909	12.32	4.30	1.59
	39.39	32.40	67.70	0.00	0.0617	10.75	473.1	403.43	0.0471	330.5	5.948	12.40	4.39	1.59
	40.40	32.38	67.73	0.00	0.0617	10.76	473.3	403.39	0.0470	329.8	5.937	12.37	4.37	1.59
	41.39	32.38	67.70	0.00	0.0617	10.75	472.9	403.22	0.0475	332.8	5.991	12.49	4.49	1.60
	42.40	32.41	67.70	-0.00	0.0617	10.75	472.9	403.28	0.0477	335.5	6.039	12.59	4.61	1.59
	43.40	32.33	67.65	-0.00	0.0617	10.75	473.1	403.62	0.0478	337.9	6.081	12.68	4.71	1.59
	44.48	32.34	67.70	0.00	0.0617	10.74	472.6	402.99	0.0483	342.2	6.160	12.84	4.89	1.59
	45.40	32.35	67.70	0.00	0.0618	10.75	473.2	403.48	0.0490	342.8	6.170	12.86	4.91	1.59
	46.47	32.31	67.68	0.00	0.0618	10.76	473.3	403.63	0.0491	347.8	6.261	13.05	5.12	1.59
	47.41	32.30	67.70	-0.00	0.0619	10.79	474.8	404.80	0.0502	359.2	6.465	13.47	5.58	1.59
	48.41	32.32	67.72	-0.00	0.0618	10.77	474.0	404.00	0.0496	355.4	6.398	13.33	5.43	1.60
	49.39	32.32	67.70	0.00	0.0619	10.79	474.7	404.73	0.0502	359.6	6.473	13.49	5.60	1.59
	50.40	32.39	67.70	0.00	0.0619	10.79	475.0	405.01	0.0504	362.7	6.528	13.61	5.73	1.59
	51.40	32.35	67.70	-0.00	0.0617	10.75	472.9	403.21	0.0504	361.8	6.512	13.57	5.69	1.59
	52.48	32.38	67.70	-0.00	0.0617	10.72	471.5	402.09	0.0506	360.7	6.492	13.53	5.65	1.59
	53.38	32.42	67.75	0.00	0.0618	10.76	473.4	403.43	0.0510	367.0	6.607	13.76	5.90	1.60
	54.41	32.47	67.73	-0.00	0.0618	10.76	473.5	403.75	0.0509	367.3	6.611	13.78	5.91	1.59
	55.47	32.51	67.73	0.00	0.0618	10.77	473.8	404.07	0.0510	369.0	6.641	13.84	5.98	1.59
	56.41	32.54	67.73	-0.00	0.0618	10.77	473.7	403.99	0.0510	369.1	6.643	13.85	5.99	1.59
	57.38	32.58	67.73	0.00	0.0617	10.75	473.1	403.52	0.0508	365.4	6.576	13.71	5.84	1.59
	58.39	32.60	67.70	0.00	0.0618	10.76	473.6	404.15	0.0511	371.2	6.682	13.94	6.07	1.59
	59.47	32.60	67.72	0.00	0.0618	10.78	474.3	404.59	0.0512	370.7	6.672	13.91	6.05	1.60
	60.40	32.62	67.70	0.00	0.0618	10.77	474.0	404.55	0.0515	374.6	6.743	14.07	6.21	1.60
	61.46	32.62	67.68	0.00	0.0618	10.77	473.8	404.47	0.0513	372.5	6.705	13.99	6.12	1.59
	62.40	32.70	67.70	0.00	0.0618	10.77	473.7	404.39	0.0519	373.4	6.721	14.02	6.16	1.60
	63.46	32.67	67.72	0.00	0.0618	10.78	474.2	404.58	0.0526	383.3	6.899	14.39	6.54	1.59
	64.40	32.69	67.70	0.00	0.0618	10.76	473.7	404.30	0.0519	380.9	6.856	14.30	6.45	1.60
	65.39	32.69	67.70	0.00	0.0619	10.78	474.5	405.05	0.0526	384.8	6.926	14.45	6.60	1.60
	66.41	32.67	67.70	-0.00	0.0618	10.77	474.1	404.64	0.0524	378.0	6.805	14.20	6.34	1.60
	67.39	32.69	67.73	0.00	0.0619	10.79	474.8	405.07	0.0528	381.0	6.858	14.30	6.45	1.60
	68.41	32.67	67.73	-0.00	0.0619	10.79	474.7	405.01	0.0536	395.8	7.124	14.86	7.01	1.60
	69.48	32.67	67.72	-0.00	0.0619	10.78	474.1	404.56	0.0535	387.2	6.970	14.54	6.69	1.59
	70.42	32.65	67.70	-0.00	0.0619	10.79	474.7	405.10	0.0530	390.2	7.024	14.65	6.80	1.60
	71.42	32.62	67.68	-0.00	0.0619	10.79	474.8	405.32	0.0546	403.6	7.265	15.16	7.29	1.60
	72.38	32.63	67.72	0.00	0.0619	10.77	474.1	404.45	0.0535	393.5	7.083	14.77	6.92	1.60
	73.40	32.62	67.72	0.00	0.0619	10.78	474.3	404.66	0.0540	398.4	7.171	14.95	7.10	1.60
	74.40	32.65	67.70	-0.00	0.0619	10.78	474.5	405.01	0.0546	403.2	7.258	15.14	7.28	1.60
	75.39	32.60	67.72	0.00	0.0619	10.79	474.7	404.93	0.0544	403.5	7.264	15.15	7.29	1.60
	76.46	32.58	67.75	0.00	0.0619	10.78	474.3	404.42	0.0547	405.0	7.289	15.19	7.34	1.60
	77.42	32.56	67.72	0.00	0.0618	10.77	473.9	404.20	0.0544	403.4	7.261	15.14	7.28	1.60
	78.41	32.57	67.73	0.00	0.0619	10.78	474.5	404.64	0.0546	404.3	7.278	15.17	7.32	1.60
	79.42	32.59	67.72	-0.00	0.0619	10.80	475.2	405.33	0.0545	404.4	7.279	15.18	7.32	1.60
	80.40	32.58	67.70	0.00	0.0619	10.77	474.1	404.55	0.0546	404.4	7.279	15.18	7.32	1.60
	81.40	32.58	67.73	0.00	0.0619	10.78	474.4	404.61	0.0542	401.3	7.223	15.06	7.21	1.60
	82.40	32.58	67.73	0.00	0.0618	10.76	473.4	403.78	0.0542	401.8	7.232	15.08	7.22	1.60
	83.40	32.60	67.70	0.00	0.0619	10.78	474.3	404.71	0.0545	404.3	7.277	15.18	7.32	1.60
	84.40	32.58	67.75	-0.00	0.0619	10.78	474.5	404.61	0.0548	406.2	7.311	15.24	7.38	1.60
	85.39	32.54	67.75	0.00	0.0619	10.79	474.8	404.77	0.0552	411.0	7.398	15.42	7.55	1.60
	86.39	32.54	67.70	0.00	0.0619	10.80	475.1	405.32	0.0554	412.5	7.425	15.48	7.61	1.60
	87.39	32.57	67.72	0.00	0.0620	10.81	475.6	405.68	0.0559	416.5	7.497	15.63	7.75	1.60
	88.39	32.58	67.72	0.00	0.0620	10.81	475.8	405.89	0.0561	421.1	7.580	15.81	7.91	1.60
	89.39	32.58	67.70	0.00	0.0620	10.81	475.8	405.99	0.0565	424.6	7.643	15.94	8.03	1.60
	90.39	32.63	67.73	0.00	0.0619	10.79	474.8	405.05	0.0565	424.7	7.645	15.94	8.04	1.60
	91.42	32.65	67.72	0.00	0.0619	10.79	474.9	405.19	0.0557	421.3	7.583	15.81	7.92	1.60
	92.42	32.60	67.73	0.00	0.0619	10.80	475.1	405.31	0.0558	416.6	7.500	15.64	7.76	1.60
	93.40	32.58	67.70	0.00	0.0620	10.82	475.9	406.05	0.0561	419.0	7.543	15.73	7.84	1.60
	94.41	32.58	67.73	-0.00	0.0620	10.81	475.6	405.67	0.0561	420.2	7.563	15.77	7.88	1.60
	95.41	32.59	67.73	0.00	0.0619	10.79	474.9	405.09	0.0565	425.2	7.654	15.96	8.05	1.60
	96.41	32.56	67.70	-0.00	0.0619	10.79	474.8	405.11	0.0563	421.6	7.588	15.83	7.93	1.60
	97.41	32.60	67.72	-0.00	0.0620	10.80	475.4	405.50	0.0568	427.4	7.693	16.04	8.13	1.60
	98.39	32.62	67.72	0.00	0.0620	10.82	476.0	406.12	0.0572	433.0	7.793	16.25	8.32	1.60
	99.40	32.65	67.72	-0.00	0.0620	10.80	475.1	405.38	0.0570	428.3	7.709	16.08	8.16	1.60
	100.40	32.62	67.72	-0.00	0.0620	10.80	475.3	405.51	0.0574	432.6	7.786	16.24	8.31	1.60
	101.40	32.58	67.75	0.00	0.0620	10.80	475.2	405.18	0.0577	437.9	7.882	16.43	8.49	1.60
	102.38	32.60	67.75	0.00	0.0620	10.82	475.9	405.88	0.0581	441.5	7.947	16.57	8.61	1.60
	103.40	32.58	67.70	0.00	0.0621	10.83	476.6	406.66	0.0586	445.9	8.026	16.74	8.75	1.60
	104.38	32.60	67.73	0.00	0.0621	10.83	476.6	406.54	0.0586	447.8	8.061	16.81	8.82	1.60
	105.39	32.65	67.72	0.00	0.0621	10.82	476.1	406.18	0.0585	444.8	8.007	16.70	8.72	1.60
	106.39	32.69	67.70	0.00	0.0620	10.83	476.5	406.71	0.0584	448.7	8.076	16.85	8.85	1.60
	107.41	32.69	67.73	0.00	0.0621	10.82	476.1	406.26	0.0585	446.1	8.031	16.75	8.77	1.60
	108.41	32.69	67.75	-0.00	0.0621	10.82	476.1	406.10	0.0588	447.9	8.061	16.81	8.82	1.60
	109.42	32.67	67.68	-0.00	0.0621	10.84	476.8	407.10	0.0592	452.6	8.148	17.00	8.98	1.60
	110.40	32.67	67.73	-0.00	0.0622	10.82	476.1	406.23	0.0596	449.2	8.086	16.86	8.87	1.60
	111.42	32.65	67.70	-0.00	0.0621	10.84	477.1	407.22	0.0593	455.2	8.194	17.10	9.06	1.60
	112.40	32.65	67.73	0.00	0.0622	10.84	477.0	406.95	0.0595	457.1	8.228	17.16	9.13	1.60
	113.40	32.62	67.70	0.00	0.0621	10.84	477.1	407.15	0.0596	459.0	8.261	17.23	9.18	1.60
	114.39	32.63	67.70	0.00	0.0621	10.84	476.8	406.92	0.0595	457.7	8.239	17.19	9.14	1.60
	115.39	32.61	67.70	0.00	0.0622	10.85	477.2	407.24	0.0598	459.8	8.276	17.27	9.21	1.60
	116.39	32.58	67.72	0.00	0.0620	10.81	475.8	405.84	0.0596	458.4	8.252	17.21	9.17	1.60
	117.39	32.61	67.72	0.00	0.0621	10.83	476.6	406.57	0.0593	457.6	8.237	17.18	9.14	1.60
	118.41	32.58	67.73	0.00	0.0622	10.84	477.1	406.95	0.0601	462.4	8.323	17.35	9.29	1.60
