Jul 28 2015 at 14:06:46
Frequency: 1.00Hz.
CO2
Zero:  Value:0.95  Date:18 Mar 2005	 at 07:22:33	
Span:  Value:1.00  Date:18 Mar 2005	 at 07:25:09	
H2O
Zero:  Value:0.71  Date:18 Mar 2005	 at 07:52:31	
Span:  Value:0.99  Date:18 Mar 2005	 at 11:44:01	
	Relative Time	Temperature	Pressure	Aux Input	CO2 Absorptance	CO2 mmol/m3	CO2 mg/m3	CO2 umol/mol	H2O Absorptance	H2O mmol/m3	H2O g/m3	H2O mmol/mol	H2O(°C)	Cooler Voltage
	0.22	31.62	67.68	0.00	0.0621	10.85	477.4	406.19	0.0456	313.0	5.633	11.72	3.58	1.59
	1.25	31.61	67.68	-0.00	0.0622	10.87	478.2	406.93	0.0454	314.9	5.668	11.79	3.67	1.59
	2.23	31.67	67.75	0.00	0.0621	10.84	477.0	405.53	0.0461	319.2	5.745	11.94	3.86	1.59
	3.23	31.70	67.70	0.00	0.0621	10.84	476.8	405.72	0.0460	320.2	5.764	11.99	3.91	1.59
	4.23	31.65	67.68	0.00	0.0621	10.83	476.7	405.69	0.0462	321.0	5.778	12.02	3.94	1.59
	5.23	31.68	67.68	0.00	0.0620	10.81	475.7	404.85	0.0461	321.3	5.784	12.03	3.96	1.59
	6.22	31.69	67.70	0.00	0.0619	10.80	475.4	404.44	0.0464	324.0	5.832	12.13	4.08	1.59
	7.24	31.73	67.68	0.00	0.0619	10.79	474.7	404.13	0.0468	324.8	5.847	12.17	4.12	1.59
	8.24	31.75	67.70	0.00	0.0618	10.76	473.3	402.78	0.0480	341.1	6.140	12.77	4.82	1.59
	9.25	31.76	67.70	-0.00	0.0617	10.74	472.8	402.30	0.0491	353.7	6.366	13.24	5.34	1.59
	10.23	31.79	67.70	0.00	0.0617	10.75	472.8	402.40	0.0485	341.5	6.146	12.79	4.83	1.59
	11.22	31.81	67.68	0.00	0.0616	10.72	471.8	401.70	0.0471	331.1	5.960	12.41	4.39	1.59
	12.31	31.78	67.70	-0.00	0.0616	10.72	471.5	401.29	0.0462	325.1	5.852	12.17	4.13	1.59
	13.21	31.81	67.70	0.00	0.0615	10.71	471.2	401.10	0.0463	321.4	5.785	12.04	3.97	1.59
	14.23	31.86	67.73	0.00	0.0616	10.71	471.3	401.07	0.0468	323.9	5.830	12.13	4.08	1.59
	15.21	31.85	67.70	0.00	0.0616	10.71	471.5	401.31	0.0478	339.2	6.106	12.71	4.74	1.59
	16.24	31.81	67.70	-0.00	0.0616	10.72	471.5	401.32	0.0487	344.3	6.197	12.89	4.95	1.59
	17.21	31.78	67.70	0.00	0.0615	10.70	470.8	400.68	0.0496	350.3	6.305	13.12	5.20	1.59
	18.22	31.82	67.68	0.00	0.0615	10.70	470.6	400.72	0.0509	367.9	6.623	13.79	5.91	1.59
	19.22	31.76	67.70	0.00	0.0615	10.69	470.4	400.35	0.0505	363.1	6.535	13.59	5.71	1.59
	20.23	31.75	67.68	0.00	0.0615	10.69	470.2	400.28	0.0519	376.7	6.781	14.11	6.25	1.59
	21.23	31.78	67.70	0.00	0.0614	10.68	469.7	399.75	0.0532	388.2	6.987	14.54	6.68	1.59
	22.23	31.77	67.73	0.00	0.0614	10.67	469.6	399.48	0.0519	377.5	6.794	14.13	6.28	1.59
	23.23	31.77	67.72	-0.00	0.0613	10.67	469.4	399.38	0.0517	381.1	6.860	14.27	6.42	1.59
	24.24	31.77	67.73	-0.00	0.0613	10.65	468.7	398.70	0.0528	385.2	6.934	14.42	6.57	1.59
	25.23	31.79	67.70	-0.00	0.0613	10.66	469.0	399.16	0.0533	392.5	7.064	14.70	6.84	1.59
	26.24	31.82	67.70	-0.00	0.0612	10.64	468.0	398.37	0.0532	388.4	6.992	14.55	6.69	1.59
	27.24	31.85	67.70	0.00	0.0612	10.64	468.2	398.53	0.0538	397.8	7.161	14.90	7.04	1.59
	28.22	31.88	67.70	0.00	0.0613	10.64	468.3	398.66	0.0534	394.4	7.100	14.77	6.92	1.59
	29.25	31.85	67.70	-0.00	0.0613	10.64	468.2	398.56	0.0529	390.7	7.032	14.63	6.78	1.59
	30.22	31.90	67.70	0.00	0.0612	10.65	468.7	399.03	0.0538	393.5	7.082	14.74	6.89	1.59
	31.23	31.87	67.70	0.00	0.0612	10.63	467.7	398.17	0.0541	399.1	7.183	14.95	7.09	1.59
	32.21	31.89	67.72	0.00	0.0612	10.61	466.9	397.41	0.0546	403.2	7.258	15.10	7.24	1.59
	33.23	31.89	67.68	0.00	0.0612	10.64	468.0	398.63	0.0545	401.6	7.229	15.05	7.18	1.59
	34.21	31.88	67.70	0.00	0.0613	10.64	468.3	398.69	0.0544	402.5	7.245	15.08	7.22	1.59
	35.23	31.94	67.68	-0.00	0.0612	10.63	467.6	398.31	0.0557	417.3	7.512	15.64	7.75	1.59
	36.24	31.94	67.70	0.00	0.0611	10.62	467.3	397.87	0.0563	422.5	7.604	15.83	7.93	1.59
	37.25	31.93	67.75	-0.00	0.0610	10.58	465.6	396.18	0.0581	438.2	7.887	16.40	8.47	1.59
	38.24	31.91	67.70	-0.00	0.0609	10.56	464.7	395.70	0.0581	442.6	7.966	16.58	8.61	1.59
	39.23	31.88	67.73	-0.00	0.0608	10.55	464.3	395.10	0.0586	446.4	8.036	16.72	8.74	1.59
	40.23	31.94	67.68	0.00	0.0609	10.57	464.9	395.98	0.0585	445.3	8.016	16.69	8.70	1.59
	41.23	31.91	67.70	0.00	0.0609	10.57	465.1	396.01	0.0579	439.0	7.902	16.45	8.49	1.59
	42.23	31.91	67.70	0.00	0.0609	10.56	464.7	395.71	0.0587	447.2	8.049	16.75	8.76	1.59
	43.24	31.94	67.70	-0.00	0.0608	10.55	464.3	395.36	0.0592	454.1	8.173	17.01	8.99	1.59
	44.23	31.86	67.68	0.00	0.0609	10.55	464.3	395.41	0.0593	455.2	8.194	17.06	9.03	1.59
	45.22	31.92	67.68	0.00	0.0610	10.57	465.3	396.29	0.0599	460.9	8.296	17.27	9.21	1.59
	46.22	31.92	67.70	0.00	0.0610	10.57	465.2	396.09	0.0604	467.0	8.406	17.49	9.41	1.59
	47.22	31.90	67.70	0.00	0.0608	10.54	463.7	394.79	0.0601	465.8	8.384	17.45	9.37	1.59
	48.23	31.90	67.70	-0.00	0.0608	10.55	464.2	395.24	0.0610	470.8	8.475	17.64	9.53	1.59
	49.23	31.84	67.70	0.00	0.0609	10.56	464.6	395.46	0.0619	484.1	8.715	18.13	9.94	1.59
	50.23	31.87	67.68	-0.00	0.0608	10.54	464.0	395.11	0.0613	476.3	8.573	17.85	9.70	1.59
	51.22	31.85	67.72	0.00	0.0608	10.55	464.3	395.09	0.0608	473.2	8.517	17.72	9.60	1.59
	52.23	31.85	67.70	0.00	0.0608	10.54	463.8	394.83	0.0606	469.6	8.453	17.59	9.49	1.59
	53.23	31.90	67.70	0.00	0.0608	10.54	463.6	394.73	0.0605	468.0	8.424	17.53	9.44	1.59
	54.23	31.86	67.70	0.00	0.0608	10.53	463.4	394.45	0.0607	471.3	8.484	17.66	9.54	1.59
	55.24	31.89	67.70	0.00	0.0607	10.52	462.8	394.02	0.0609	472.3	8.501	17.69	9.57	1.59
	56.22	31.94	67.70	0.00	0.0608	10.53	463.4	394.60	0.0613	476.8	8.583	17.86	9.72	1.59
	57.24	31.93	67.70	0.00	0.0606	10.52	462.7	393.96	0.0615	480.0	8.641	17.98	9.82	1.59
	58.22	31.96	67.73	0.00	0.0606	10.51	462.6	393.79	0.0616	483.5	8.703	18.11	9.93	1.59
	59.23	31.93	67.70	0.00	0.0605	10.45	459.9	391.58	0.0620	488.0	8.784	18.28	10.06	1.59
	60.22	31.93	67.70	0.00	0.0605	10.48	461.1	392.59	0.0625	490.9	8.837	18.39	10.15	1.59
	61.31	31.93	67.70	-0.00	0.0605	10.47	460.8	392.34	0.0622	491.0	8.839	18.40	10.16	1.59
	62.21	31.91	67.75	0.00	0.0606	10.48	461.2	392.45	0.0638	505.2	9.093	18.91	10.58	1.59
	63.30	31.89	67.70	-0.00	0.0606	10.50	462.0	393.31	0.0646	513.8	9.248	19.25	10.83	1.59
	64.21	31.92	67.73	0.00	0.0606	10.50	462.0	393.25	0.0639	507.6	9.137	19.01	10.65	1.59
	65.24	31.86	67.72	-0.00	0.0606	10.50	462.1	393.29	0.0639	508.9	9.160	19.05	10.69	1.59
	66.22	31.87	67.70	-0.00	0.0604	10.45	459.9	391.57	0.0649	520.2	9.363	19.49	11.02	1.59
	67.24	31.90	67.68	0.00	0.0601	10.40	457.4	389.59	0.0668	540.7	9.732	20.26	11.60	1.59
	68.22	31.84	67.70	0.00	0.0604	10.43	459.0	390.69	0.0654	528.6	9.515	19.80	11.26	1.59
	69.23	31.89	67.70	0.00	0.0605	10.46	460.4	391.96	0.0649	517.7	9.319	19.39	10.95	1.59
	70.23	31.92	67.70	-0.00	0.0604	10.44	459.5	391.26	0.0658	527.8	9.500	19.77	11.24	1.59
	71.25	31.94	67.70	-0.00	0.0603	10.42	458.6	390.56	0.0659	532.0	9.576	19.93	11.36	1.59
	72.23	31.91	67.70	0.00	0.0603	10.44	459.3	391.04	0.0665	537.6	9.676	20.14	11.52	1.59
	73.23	31.90	67.70	0.00	0.0604	10.45	459.7	391.35	0.0670	542.8	9.771	20.33	11.66	1.59
	74.22	31.90	67.70	0.00	0.0604	10.44	459.4	391.15	0.0669	542.0	9.756	20.30	11.64	1.59
	75.24	31.88	67.70	-0.00	0.0603	10.43	458.8	390.56	0.0668	540.9	9.737	20.26	11.61	1.59
	76.24	31.85	67.70	0.00	0.0603	10.43	458.8	390.57	0.0673	544.8	9.807	20.41	11.72	1.59
	77.22	31.84	67.68	0.00	0.0603	10.42	458.7	390.58	0.0675	549.5	9.891	20.59	11.85	1.59
	78.23	31.85	67.70	0.00	0.0603	10.42	458.7	390.44	0.0675	548.4	9.871	20.54	11.81	1.59
	79.22	31.86	67.70	0.00	0.0602	10.40	457.6	389.55	0.0674	545.5	9.819	20.43	11.74	1.59
	80.31	31.87	67.70	-0.00	0.0602	10.38	456.8	388.90	0.0678	549.8	9.897	20.60	11.86	1.59
	81.21	31.84	67.70	0.00	0.0603	10.41	458.2	390.03	0.0680	553.9	9.970	20.75	11.97	1.59
	82.23	31.91	67.73	0.00	0.0601	10.39	457.4	389.26	0.0679	555.0	9.991	20.78	12.00	1.59
	83.21	31.90	67.72	0.00	0.0601	10.41	457.9	389.75	0.0680	554.9	9.988	20.78	12.00	1.59
	84.24	31.94	67.68	0.00	0.0603	10.41	457.9	390.03	0.0677	552.1	9.937	20.69	11.92	1.59
	85.22	31.96	67.72	0.00	0.0602	10.41	457.9	389.76	0.0683	556.5	10.017	20.84	12.04	1.59
	86.24	31.90	67.72	0.00	0.0603	10.42	458.3	390.07	0.0684	559.4	10.069	20.95	12.12	1.59
	87.22	31.93	67.73	0.00	0.0602	10.42	458.3	390.08	0.0688	563.1	10.136	21.09	12.22	1.59
	88.25	31.96	67.70	-0.00	0.0603	10.42	458.6	390.53	0.0684	560.2	10.084	20.99	12.15	1.59
	89.23	31.93	67.72	-0.00	0.0603	10.42	458.6	390.32	0.0686	562.5	10.126	21.07	12.21	1.59
	90.25	31.93	67.72	-0.00	0.0602	10.41	457.9	389.74	0.0690	565.6	10.181	21.18	12.29	1.59
	91.23	31.91	67.72	-0.00	0.0602	10.40	457.6	389.49	0.0691	567.5	10.214	21.25	12.34	1.59
	92.23	31.89	67.72	0.00	0.0601	10.39	457.3	389.22	0.0690	567.1	10.207	21.24	12.33	1.59
	93.23	31.89	67.70	0.00	0.0601	10.39	457.3	389.34	0.0692	568.6	10.234	21.30	12.37	1.59
	94.24	31.89	67.70	-0.00	0.0601	10.38	456.6	388.70	0.0700	578.2	10.408	21.66	12.62	1.59
	95.22	31.89	67.70	0.00	0.0601	10.37	456.3	388.51	0.0693	573.3	10.319	21.48	12.49	1.59
	96.24	31.89	67.73	-0.00	0.0600	10.35	455.5	387.60	0.0702	585.7	10.542	21.93	12.82	1.59
	97.22	31.94	67.72	0.00	0.0600	10.37	456.2	388.36	0.0702	580.4	10.447	21.74	12.68	1.59
	98.22	31.91	67.72	0.00	0.0600	10.36	456.0	388.11	0.0703	580.5	10.450	21.74	12.68	1.59
	99.23	31.93	67.70	-0.00	0.0599	10.36	455.8	388.12	0.0708	588.2	10.587	22.04	12.89	1.59
	100.25	32.01	67.70	0.00	0.0599	10.34	455.1	387.57	0.0714	593.5	10.683	22.24	13.03	1.59
	101.23	31.99	67.70	0.00	0.0599	10.34	454.8	387.34	0.0716	599.7	10.795	22.47	13.19	1.59
	102.24	31.99	67.70	-0.00	0.0598	10.31	453.6	386.30	0.0721	604.6	10.882	22.66	13.31	1.59
	103.24	32.04	67.70	-0.00	0.0598	10.33	454.5	387.10	0.0724	608.4	10.951	22.80	13.41	1.59
	104.22	31.99	67.72	0.00	0.0597	10.30	453.4	386.01	0.0721	603.9	10.870	22.62	13.29	1.59
	105.22	32.01	67.70	0.00	0.0598	10.31	453.7	386.41	0.0724	609.4	10.970	22.84	13.43	1.59
	106.24	31.99	67.72	-0.00	0.0599	10.33	454.5	386.94	0.0729	614.9	11.068	23.03	13.57	1.59
	107.23	31.99	67.70	-0.00	0.0599	10.34	454.7	387.25	0.0727	617.3	11.111	23.13	13.63	1.59
	108.22	32.01	67.72	-0.00	0.0599	10.34	455.1	387.49	0.0731	614.2	11.055	23.01	13.55	1.59
	109.22	31.97	67.68	0.00	0.0599	10.33	454.4	387.12	0.0730	616.6	11.098	23.11	13.61	1.59
	110.23	32.07	67.72	0.00	0.0597	10.30	453.3	386.02	0.0726	611.1	10.999	22.90	13.48	1.59
	111.24	32.06	67.70	-0.00	0.0598	10.33	454.3	387.03	0.0724	610.1	10.983	22.87	13.45	1.60
	112.23	31.99	67.68	0.00	0.0597	10.30	453.1	385.99	0.0725	609.5	10.970	22.85	13.43	1.59
	113.24	32.01	67.70	0.00	0.0598	10.31	453.7	386.37	0.0728	613.4	11.041	22.99	13.53	1.59
	114.30	32.01	67.70	-0.00	0.0599	10.34	455.1	387.57	0.0719	612.4	11.024	22.95	13.51	1.59
	115.22	32.03	67.70	0.00	0.0599	10.35	455.3	387.80	0.0731	616.8	11.102	23.11	13.62	1.59
	116.22	32.05	67.70	0.00	0.0597	10.30	453.2	386.03	0.0727	613.5	11.043	22.99	13.54	1.59
	117.23	32.05	67.70	-0.00	0.0596	10.28	452.4	385.35	0.0726	612.0	11.016	22.94	13.50	1.60
	118.23	32.03	67.72	-0.00	0.0597	10.28	452.2	385.05	0.0732	617.5	11.115	23.13	13.64	1.59
	119.23	32.06	67.70	-0.00	0.0598	10.30	453.0	385.85	0.0735	621.8	11.193	23.31	13.74	1.59
	120.21	32.01	67.70	0.00	0.0598	10.30	453.4	386.11	0.0734	621.5	11.186	23.29	13.73	1.59
	121.24	32.03	67.72	-0.00	0.0597	10.30	453.4	386.03	0.0733	620.9	11.176	23.26	13.72	1.59
	122.24	32.07	67.72	-0.00	0.0597	10.29	452.6	385.45	0.0730	613.8	11.048	23.00	13.54	1.59
