Jul 28 2015 at 11:00:16
Frequency: 1.00Hz.
CO2
Zero:  Value:0.95  Date:18 Mar 2005	 at 07:22:33	
Span:  Value:1.00  Date:18 Mar 2005	 at 07:25:09	
H2O
Zero:  Value:0.71  Date:18 Mar 2005	 at 07:52:31	
Span:  Value:0.99  Date:18 Mar 2005	 at 11:44:01	
	Relative Time	Temperature	Pressure	Aux Input	CO2 Absorptance	CO2 mmol/m3	CO2 mg/m3	CO2 umol/mol	H2O Absorptance	H2O mmol/m3	H2O g/m3	H2O mmol/mol	H2O(°C)	Cooler Voltage
	0.94	28.32	67.65	0.00	0.0619	10.78	474.4	399.47	0.0455	314.4	5.659	11.65	3.49	1.60
	1.93	28.31	67.65	0.00	0.0617	10.76	473.4	398.61	0.0471	326.4	5.876	12.09	4.03	1.60
	2.93	28.35	67.65	0.00	0.0619	10.77	474.0	399.15	0.0465	323.4	5.822	11.98	3.90	1.60
	3.95	28.32	67.67	0.00	0.0616	10.72	471.7	397.07	0.0471	336.0	6.048	12.45	4.44	1.60
	4.93	28.32	67.67	0.00	0.0620	10.81	475.5	400.28	0.0455	314.4	5.660	11.65	3.50	1.60
	5.94	28.32	67.65	0.00	0.0618	10.78	474.4	399.43	0.0455	317.0	5.707	11.75	3.61	1.60
	6.94	28.30	67.65	0.00	0.0619	10.79	474.8	399.78	0.0453	315.0	5.671	11.67	3.52	1.60
	7.94	28.33	67.67	-0.00	0.0618	10.78	474.2	399.18	0.0453	313.9	5.650	11.63	3.47	1.60
	8.94	28.30	67.65	-0.00	0.0619	10.80	475.4	400.25	0.0437	298.0	5.364	11.04	2.73	1.60
	9.95	28.32	67.65	-0.00	0.0619	10.79	474.7	399.74	0.0443	306.2	5.511	11.34	3.12	1.59
	10.97	28.32	67.65	-0.00	0.0618	10.72	471.9	397.36	0.0455	317.2	5.709	11.75	3.62	1.59
	11.95	28.36	67.67	-0.00	0.0617	10.74	472.6	397.84	0.0452	318.0	5.724	11.78	3.66	1.60
	12.93	28.34	67.65	0.00	0.0618	10.77	473.7	398.92	0.0453	312.2	5.620	11.57	3.40	1.60
	14.01	28.34	67.65	0.00	0.0617	10.74	472.7	398.07	0.0462	322.4	5.803	11.94	3.85	1.59
	14.93	28.38	67.65	0.00	0.0616	10.74	472.7	398.10	0.0461	320.7	5.773	11.89	3.78	1.59
	15.94	28.38	67.65	0.00	0.0619	10.77	473.7	398.94	0.0457	313.0	5.635	11.60	3.43	1.59
	16.94	28.35	67.67	-0.00	0.0617	10.76	473.4	398.51	0.0460	316.8	5.702	11.73	3.60	1.59
	17.94	28.33	67.63	0.00	0.0617	10.75	472.8	398.31	0.0472	328.9	5.920	12.19	4.13	1.59
	18.92	28.34	67.65	0.00	0.0616	10.74	472.4	397.82	0.0468	324.4	5.840	12.02	3.94	1.60
	19.95	28.32	67.62	-0.00	0.0615	10.72	471.7	397.33	0.0466	326.1	5.870	12.09	4.01	1.59
	20.95	28.32	67.65	-0.00	0.0617	10.73	472.2	397.60	0.0467	323.7	5.826	11.99	3.91	1.59
	21.96	28.30	67.65	-0.00	0.0617	10.73	472.3	397.65	0.0471	330.6	5.952	12.25	4.21	1.59
	22.95	28.33	67.62	-0.00	0.0617	10.77	473.7	399.02	0.0457	317.4	5.713	11.76	3.63	1.59
	23.96	28.30	67.67	-0.00	0.0616	10.73	472.2	397.47	0.0465	320.5	5.769	11.87	3.77	1.59
	24.95	28.30	67.65	0.00	0.0616	10.73	472.2	397.55	0.0479	335.8	6.044	12.44	4.43	1.59
	25.93	28.30	67.65	0.00	0.0614	10.70	470.6	396.27	0.0486	346.6	6.238	12.84	4.88	1.59
	26.94	28.32	67.65	0.00	0.0615	10.70	470.9	396.52	0.0491	348.4	6.272	12.91	4.96	1.59
	27.92	28.34	67.65	0.00	0.0614	10.69	470.2	395.96	0.0499	357.1	6.427	13.23	5.31	1.59
	28.94	28.34	67.65	0.00	0.0615	10.69	470.2	395.95	0.0498	355.6	6.401	13.18	5.25	1.59
	29.94	28.34	67.68	-0.00	0.0614	10.66	469.1	394.90	0.0502	358.6	6.455	13.28	5.37	1.59
	30.95	28.36	67.65	-0.00	0.0613	10.66	469.2	395.11	0.0502	362.0	6.516	13.42	5.51	1.59
	31.93	28.34	67.65	0.00	0.0614	10.68	469.8	395.61	0.0496	354.1	6.373	13.12	5.19	1.59
	32.95	28.37	67.65	-0.00	0.0611	10.64	468.1	394.24	0.0511	361.1	6.500	13.38	5.48	1.59
	33.96	28.32	67.65	-0.00	0.0612	10.62	467.3	393.51	0.0518	373.7	6.727	13.85	5.97	1.59
	34.96	28.34	67.65	0.00	0.0610	10.61	467.0	393.21	0.0521	376.6	6.779	13.95	6.08	1.59
	35.96	28.35	67.65	0.00	0.0611	10.59	466.1	392.49	0.0516	381.8	6.873	14.15	6.28	1.59
	36.96	28.34	67.65	0.00	0.0611	10.61	467.0	393.22	0.0509	359.1	6.463	13.30	5.39	1.59
	37.95	28.34	67.62	0.00	0.0609	10.57	465.2	391.93	0.0537	390.5	7.029	14.47	6.60	1.59
	38.95	28.33	67.65	-0.00	0.0607	10.53	463.2	390.03	0.0543	399.7	7.195	14.81	6.94	1.59
	39.95	28.34	67.65	-0.00	0.0607	10.51	462.3	389.32	0.0556	409.8	7.376	15.18	7.31	1.59
	40.95	28.36	67.67	0.00	0.0606	10.50	462.2	389.10	0.0558	418.7	7.536	15.51	7.62	1.59
	41.93	28.34	67.65	0.00	0.0606	10.51	462.6	389.52	0.0561	417.4	7.513	15.46	7.58	1.59
	42.95	28.34	67.68	0.00	0.0606	10.48	461.3	388.32	0.0565	427.7	7.699	15.84	7.94	1.59
	43.95	28.33	67.67	-0.00	0.0611	10.60	466.5	392.67	0.0510	381.0	6.859	14.11	6.25	1.59
	44.93	28.31	67.65	0.00	0.0606	10.51	462.5	389.43	0.0559	417.6	7.516	15.47	7.58	1.59
	45.94	28.35	67.65	0.00	0.0609	10.50	462.1	389.10	0.0529	417.4	7.514	15.47	7.58	1.59
	46.94	28.38	67.65	-0.00	0.0608	10.53	463.2	390.08	0.0544	401.7	7.230	14.88	7.02	1.59
	48.02	28.40	67.65	-0.00	0.0606	10.51	462.6	389.60	0.0548	407.0	7.326	15.08	7.21	1.59
	48.94	28.36	67.65	-0.00	0.0605	10.45	460.0	387.34	0.0554	418.5	7.534	15.51	7.62	1.59
	49.95	28.35	67.62	0.00	0.0603	10.42	458.5	386.29	0.0571	430.8	7.755	15.97	8.04	1.59
	50.95	28.34	67.65	-0.00	0.0605	10.51	462.3	389.32	0.0547	396.7	7.141	14.70	6.83	1.59
	51.96	28.34	67.65	-0.00	0.0608	10.54	463.6	390.37	0.0531	389.2	7.005	14.42	6.56	1.59
	53.01	28.41	67.65	0.00	0.0607	10.53	463.1	390.08	0.0538	396.0	7.129	14.68	6.81	1.59
	53.93	28.38	67.62	0.00	0.0607	10.50	462.1	389.30	0.0547	402.3	7.241	14.91	7.04	1.59
	54.94	28.40	67.65	0.00	0.0607	10.44	459.4	386.96	0.0533	406.8	7.322	15.07	7.20	1.59
	55.93	28.42	67.65	0.00	0.0603	10.43	459.0	386.65	0.0555	413.6	7.445	15.33	7.45	1.59
	56.94	28.42	67.67	0.00	0.0606	10.50	462.1	389.12	0.0538	394.7	7.105	14.62	6.76	1.59
	57.94	28.42	67.65	-0.00	0.0604	10.45	460.0	387.47	0.0549	408.8	7.358	15.15	7.28	1.59
	58.97	28.42	67.65	-0.00	0.0606	10.49	461.5	388.70	0.0537	397.2	7.149	14.72	6.85	1.60
	59.95	28.43	67.68	-0.00	0.0607	10.53	463.5	390.32	0.0522	383.8	6.908	14.22	6.36	1.59
	60.93	28.43	67.65	0.00	0.0606	10.52	462.7	389.80	0.0537	393.3	7.080	14.58	6.71	1.59
	61.95	28.43	67.65	-0.00	0.0603	10.45	459.7	387.19	0.0550	407.8	7.340	15.11	7.24	1.59
	62.93	28.47	67.65	0.00	0.0605	10.45	459.8	387.41	0.0555	415.9	7.485	15.42	7.53	1.59
	64.02	28.45	67.68	-0.00	0.0602	10.43	459.1	386.63	0.0569	422.9	7.612	15.67	7.77	1.59
	64.93	28.45	67.67	0.00	0.0602	10.39	457.1	384.95	0.0557	420.2	7.563	15.57	7.68	1.59
	65.96	28.47	67.65	-0.00	0.0604	10.47	460.6	388.00	0.0546	403.9	7.269	14.97	7.10	1.59
	66.92	28.49	67.62	0.00	0.0604	10.46	460.1	387.76	0.0550	410.9	7.396	15.24	7.35	1.59
	67.94	28.49	67.65	0.00	0.0599	10.38	456.7	384.77	0.0571	427.0	7.687	15.83	7.92	1.59
	68.94	28.49	67.65	0.00	0.0599	10.35	455.2	383.55	0.0577	439.8	7.916	16.30	8.35	1.59
	69.95	28.49	67.67	-0.00	0.0600	10.37	456.4	384.41	0.0583	446.3	8.033	16.54	8.57	1.59
	70.93	28.47	67.67	0.00	0.0599	10.35	455.3	383.45	0.0591	450.2	8.103	16.68	8.70	1.59
	71.93	28.48	67.66	0.00	0.0599	10.34	455.1	383.36	0.0595	456.8	8.222	16.93	8.91	1.59
	72.95	28.49	67.67	0.00	0.0600	10.35	455.5	383.65	0.0602	463.7	8.346	17.18	9.13	1.59
	73.96	28.49	67.65	-0.00	0.0607	10.55	464.1	391.01	0.0536	379.7	6.835	14.08	6.21	1.59
	74.94	28.49	67.65	0.00	0.0606	10.51	462.4	389.58	0.0526	386.0	6.948	14.31	6.44	1.59
	75.94	28.49	67.65	0.00	0.0609	10.57	465.0	391.77	0.0506	366.9	6.603	13.60	5.71	1.59
	76.95	28.54	67.67	-0.00	0.0607	10.54	463.7	390.62	0.0525	378.2	6.807	14.02	6.15	1.59
	77.94	28.53	67.65	0.00	0.0606	10.52	462.8	389.96	0.0532	385.8	6.944	14.30	6.44	1.59
	78.94	28.55	67.65	0.00	0.0608	10.46	460.1	387.74	0.0525	406.4	7.316	15.07	7.20	1.59
	79.95	28.59	67.67	-0.00	0.0606	10.48	461.0	388.39	0.0529	403.4	7.261	14.95	7.09	1.59
	80.92	28.60	67.68	0.00	0.0602	10.39	457.2	385.23	0.0572	427.3	7.692	15.84	7.93	1.59
	81.96	28.57	67.60	-0.00	0.0604	10.47	460.8	388.66	0.0538	401.7	7.231	14.91	7.03	1.59
	83.01	28.55	67.65	0.00	0.0603	10.45	459.7	387.39	0.0556	407.6	7.337	15.11	7.24	1.59
	83.93	28.51	67.65	0.00	0.0602	10.42	458.4	386.25	0.0560	417.2	7.510	15.47	7.58	1.59
	84.94	28.51	67.65	-0.00	0.0604	10.44	459.5	387.19	0.0553	409.7	7.375	15.19	7.31	1.59
	85.94	28.51	67.67	-0.00	0.0603	10.45	459.9	387.34	0.0548	403.9	7.270	14.97	7.10	1.59
	86.94	28.53	67.65	0.00	0.0602	10.43	458.8	386.61	0.0552	410.3	7.385	15.21	7.33	1.59
	87.95	28.55	67.65	-0.00	0.0602	10.40	457.8	385.77	0.0565	417.5	7.516	15.48	7.59	1.59
	88.97	28.55	67.67	-0.00	0.0600	10.39	457.2	385.13	0.0575	434.6	7.823	16.11	8.18	1.59
	89.95	28.53	67.65	-0.00	0.0599	10.37	456.2	384.42	0.0597	444.4	8.000	16.48	8.51	1.59
	90.93	28.53	67.65	0.00	0.0597	10.38	456.7	384.87	0.0595	443.9	7.991	16.46	8.49	1.59
	91.95	28.53	67.65	-0.00	0.0598	10.32	454.1	382.64	0.0599	461.8	8.313	17.12	9.08	1.59
	92.93	28.51	67.68	0.00	0.0603	10.34	455.1	383.28	0.0562	456.1	8.210	16.90	8.89	1.59
	93.94	28.49	67.65	0.00	0.0601	10.36	456.0	384.21	0.0569	428.0	7.704	15.87	7.95	1.59
	94.94	28.52	67.67	-0.00	0.0601	10.39	457.1	385.03	0.0583	440.9	7.936	16.34	8.39	1.59
	95.94	28.47	67.65	0.00	0.0596	10.34	454.8	383.17	0.0598	454.2	8.175	16.84	8.83	1.59
	96.94	28.45	67.65	-0.00	0.0596	10.27	452.0	380.71	0.0608	474.8	8.547	17.60	9.48	1.59
	97.95	28.45	67.68	-0.00	0.0599	10.29	452.8	381.33	0.0594	462.8	8.331	17.15	9.10	1.59
	98.94	28.45	67.65	-0.00	0.0598	10.35	455.3	383.56	0.0593	453.2	8.158	16.80	8.80	1.59
	99.95	28.45	67.65	-0.00	0.0598	10.30	453.1	381.70	0.0602	464.7	8.364	17.22	9.16	1.59
	100.93	28.47	67.65	0.00	0.0597	10.31	453.4	381.99	0.0601	464.5	8.361	17.22	9.16	1.59
	101.93	28.45	67.67	0.00	0.0598	10.29	452.6	381.19	0.0601	468.5	8.434	17.36	9.29	1.59
	103.02	28.49	67.65	-0.00	0.0595	10.28	452.4	381.19	0.0606	464.4	8.358	17.21	9.16	1.59
	103.96	28.53	67.62	-0.00	0.0595	10.26	451.4	380.53	0.0609	473.7	8.527	17.57	9.45	1.59
	104.94	28.53	67.65	0.00	0.0597	10.27	452.0	380.87	0.0608	471.0	8.477	17.46	9.37	1.59
	105.92	28.55	67.65	0.00	0.0594	10.26	451.4	380.38	0.0610	474.6	8.543	17.60	9.48	1.59
	106.94	28.57	67.65	0.00	0.0597	10.27	452.0	380.88	0.0612	478.2	8.608	17.73	9.60	1.59
	107.94	28.59	67.62	0.00	0.0595	10.27	452.1	381.17	0.0608	474.9	8.547	17.62	9.49	1.59
	108.94	28.60	67.65	0.00	0.0597	10.28	452.4	381.34	0.0611	470.7	8.473	17.46	9.36	1.59
	109.93	28.57	67.62	0.00	0.0596	10.27	451.8	380.91	0.0611	474.6	8.542	17.60	9.48	1.59
	110.93	28.55	67.65	0.00	0.0594	10.27	451.8	380.73	0.0607	471.1	8.479	17.47	9.37	1.59
	111.95	28.53	67.62	-0.00	0.0595	10.25	451.0	380.16	0.0611	475.5	8.560	17.64	9.51	1.59
	112.93	28.49	67.62	0.00	0.0595	10.24	450.5	379.67	0.0615	480.1	8.641	17.80	9.65	1.59
	113.94	28.51	67.65	-0.00	0.0594	10.24	450.5	379.52	0.0616	481.4	8.665	17.85	9.69	1.59
	114.94	28.53	67.65	-0.00	0.0593	10.22	449.5	378.79	0.0608	472.6	8.507	17.52	9.42	1.59
	115.94	28.53	67.65	-0.00	0.0594	10.22	449.7	378.94	0.0608	472.0	8.496	17.50	9.40	1.59
	116.94	28.57	67.65	0.00	0.0594	10.22	449.7	378.96	0.0612	475.4	8.557	17.63	9.51	1.59
	117.95	28.59	67.65	-0.00	0.0592	10.22	449.8	379.09	0.0609	473.0	8.515	17.54	9.44	1.59
	118.95	28.59	67.65	0.00	0.0595	10.24	450.4	379.57	0.0614	479.0	8.623	17.76	9.62	1.59
	119.95	28.60	67.67	-0.00	0.0591	10.19	448.6	377.95	0.0610	474.8	8.546	17.60	9.49	1.59
	120.93	28.63	67.65	0.00	0.0592	10.18	447.8	377.48	0.0607	471.1	8.480	17.47	9.38	1.59
