Jul 28 2015 at 15:37:25
Frequency: 1.00Hz.
CO2
Zero:  Value:0.95  Date:18 Mar 2005	 at 07:22:33	
Span:  Value:1.00  Date:18 Mar 2005	 at 07:25:09	
H2O
Zero:  Value:0.71  Date:18 Mar 2005	 at 07:52:31	
Span:  Value:0.99  Date:18 Mar 2005	 at 11:44:01	
	Relative Time	Temperature	Pressure	Aux Input	CO2 Absorptance	CO2 mmol/m3	CO2 mg/m3	CO2 umol/mol	H2O Absorptance	H2O mmol/m3	H2O g/m3	H2O mmol/mol	H2O(°C)	Cooler Voltage
	0.66	31.45	66.92	0.00	0.0621	10.89	479.0	412.04	0.0385	253.0	4.554	9.57	0.60	1.60
	1.64	31.41	66.89	0.00	0.0623	10.94	481.3	414.03	0.0385	252.1	4.538	9.54	0.54	1.60
	2.64	31.41	66.89	0.00	0.0623	10.91	479.9	412.85	0.0387	254.2	4.576	9.62	0.66	1.60
	3.67	31.43	66.89	0.00	0.0622	10.91	480.2	413.14	0.0386	254.1	4.574	9.62	0.66	1.60
	4.65	31.41	66.89	-0.00	0.0622	10.91	479.9	412.85	0.0388	255.3	4.595	9.66	0.72	1.59
	5.65	31.41	66.92	-0.00	0.0619	10.82	476.0	409.37	0.0385	249.9	4.499	9.46	0.42	1.60
	6.66	31.41	66.89	-0.00	0.0621	10.85	477.5	410.75	0.0403	259.9	4.678	9.84	0.97	1.60
	7.64	31.43	66.89	0.00	0.0619	10.85	477.4	410.69	0.0387	256.4	4.615	9.70	0.78	1.60
	8.64	31.45	66.92	-0.00	0.0620	10.83	476.6	409.94	0.0383	252.5	4.546	9.56	0.57	1.60
	9.66	31.39	66.89	0.00	0.0618	10.81	475.7	409.19	0.0379	248.7	4.476	9.41	0.35	1.59
	10.64	31.41	66.89	0.00	0.0620	10.83	476.3	409.79	0.0387	252.6	4.546	9.56	0.57	1.59
	11.64	31.43	66.89	0.00	0.0619	10.83	476.6	410.02	0.0390	259.3	4.667	9.82	0.94	1.59
	12.67	31.43	66.89	-0.00	0.0619	10.82	476.1	409.59	0.0386	254.0	4.572	9.61	0.65	1.60
	13.65	31.43	66.87	0.00	0.0619	10.81	475.7	409.46	0.0392	261.1	4.699	9.89	1.03	1.60
	14.65	31.46	66.92	-0.00	0.0617	10.81	475.6	409.08	0.0404	264.1	4.753	9.99	1.19	1.59
	15.65	31.43	66.88	0.00	0.0619	10.82	476.0	409.64	0.0415	282.0	5.076	10.68	2.11	1.59
	16.65	31.43	66.89	0.00	0.0618	10.82	476.2	409.68	0.0426	294.0	5.293	11.13	2.69	1.59
	17.64	31.43	66.89	0.00	0.0618	10.80	475.0	408.66	0.0425	287.5	5.175	10.88	2.38	1.59
	18.63	31.43	66.90	0.00	0.0617	10.80	475.1	408.69	0.0428	285.0	5.130	10.79	2.25	1.59
	19.66	31.42	66.92	-0.00	0.0617	10.77	474.1	407.73	0.0440	295.1	5.312	11.17	2.74	1.60
	20.64	31.45	66.92	0.00	0.0618	10.79	474.7	408.25	0.0447	310.5	5.589	11.75	3.46	1.59
	21.64	31.43	66.87	0.00	0.0616	10.78	474.5	408.41	0.0441	306.0	5.507	11.59	3.25	1.59
	22.67	31.41	66.89	-0.00	0.0617	10.79	474.6	408.33	0.0441	300.9	5.417	11.39	3.02	1.59
	23.65	31.43	66.92	0.00	0.0617	10.78	474.4	408.02	0.0445	307.0	5.525	11.62	3.30	1.59
	24.65	31.41	66.90	0.00	0.0617	10.78	474.3	408.01	0.0436	300.6	5.410	11.38	3.00	1.59
	25.65	31.43	66.89	0.00	0.0618	10.80	475.0	408.69	0.0431	292.2	5.260	11.06	2.61	1.60
	26.64	31.44	66.92	0.00	0.0617	10.79	474.8	408.33	0.0432	296.8	5.342	11.23	2.82	1.59
	27.64	31.43	66.89	0.00	0.0617	10.78	474.1	407.91	0.0439	303.3	5.459	11.48	3.13	1.59
	28.64	31.45	66.89	0.00	0.0617	10.77	473.9	407.70	0.0437	297.7	5.359	11.27	2.87	1.59
	29.64	31.43	66.92	0.00	0.0617	10.78	474.2	407.87	0.0434	296.6	5.339	11.22	2.82	1.59
	30.65	31.43	66.89	0.00	0.0616	10.77	473.7	407.58	0.0438	300.2	5.403	11.36	2.98	1.60
	31.73	31.43	66.92	-0.00	0.0616	10.77	474.0	407.60	0.0428	288.2	5.188	10.91	2.41	1.59
	32.71	31.43	66.89	0.00	0.0615	10.75	473.0	406.93	0.0440	300.7	5.412	11.38	3.01	1.59
	33.63	31.41	66.89	0.00	0.0616	10.75	473.2	407.06	0.0443	305.0	5.491	11.55	3.21	1.59
	34.66	31.43	66.89	-0.00	0.0615	10.75	472.9	406.84	0.0441	305.3	5.495	11.56	3.22	1.59
	35.65	31.44	66.84	-0.00	0.0615	10.73	472.2	406.58	0.0449	309.6	5.573	11.73	3.42	1.59
	36.63	31.43	66.92	0.00	0.0615	10.74	472.7	406.54	0.0446	308.8	5.558	11.68	3.38	1.59
	37.64	31.41	66.87	0.00	0.0615	10.73	471.9	406.17	0.0452	315.2	5.674	11.94	3.68	1.59
	38.64	31.45	66.92	0.00	0.0613	10.70	470.6	404.77	0.0458	320.1	5.762	12.11	3.89	1.59
	39.62	31.42	66.90	0.00	0.0614	10.70	470.8	405.01	0.0468	326.2	5.871	12.35	4.16	1.59
	40.64	31.47	66.92	0.00	0.0613	10.71	471.1	405.19	0.0464	322.8	5.811	12.22	4.02	1.59
	41.64	31.40	66.92	0.00	0.0612	10.67	469.6	403.83	0.0471	333.8	6.009	12.63	4.49	1.59
	42.65	31.43	66.87	0.00	0.0614	10.71	471.1	405.47	0.0475	336.7	6.061	12.75	4.62	1.59
	43.66	31.43	66.87	0.00	0.0614	10.71	471.2	405.52	0.0486	344.8	6.206	13.06	4.95	1.59
	44.66	31.43	66.89	-0.00	0.0613	10.70	471.0	405.21	0.0490	349.8	6.296	13.24	5.16	1.59
	45.65	31.41	66.89	-0.00	0.0613	10.71	471.1	405.30	0.0487	345.7	6.223	13.09	4.99	1.59
	46.65	31.42	66.87	-0.00	0.0613	10.70	470.8	405.19	0.0485	351.3	6.323	13.30	5.22	1.59
	47.64	31.42	66.87	0.00	0.0613	10.71	471.1	405.43	0.0498	355.3	6.395	13.45	5.39	1.59
	48.66	31.47	66.95	-0.00	0.0614	10.69	470.6	404.57	0.0497	355.6	6.401	13.45	5.40	1.59
	49.64	31.45	66.89	0.00	0.0612	10.65	468.6	403.19	0.0490	350.4	6.306	13.26	5.19	1.59
	50.64	31.45	66.89	0.00	0.0613	10.68	470.0	404.41	0.0493	352.4	6.344	13.34	5.27	1.59
	51.64	31.40	66.89	0.00	0.0612	10.69	470.3	404.55	0.0507	364.8	6.566	13.81	5.76	1.59
	52.63	31.43	66.92	0.00	0.0612	10.65	468.6	403.02	0.0508	369.9	6.657	14.00	5.97	1.59
	53.63	31.43	66.89	0.00	0.0612	10.67	469.4	403.91	0.0502	357.0	6.426	13.52	5.46	1.59
	54.65	31.43	66.90	0.00	0.0610	10.64	468.3	402.87	0.0510	370.3	6.666	14.02	5.98	1.59
	55.65	31.42	66.89	0.00	0.0612	10.65	468.6	403.11	0.0510	363.3	6.539	13.75	5.71	1.59
	56.66	31.43	66.87	0.00	0.0611	10.65	468.7	403.37	0.0511	371.5	6.686	14.07	6.03	1.59
	57.66	31.42	66.90	-0.00	0.0612	10.65	468.4	402.98	0.0519	381.0	6.859	14.42	6.40	1.59
	58.66	31.41	66.89	-0.00	0.0611	10.65	468.6	403.13	0.0517	381.2	6.862	14.43	6.40	1.59
	59.66	31.41	66.89	0.00	0.0611	10.65	468.4	402.98	0.0496	364.3	6.557	13.79	5.74	1.59
	60.65	31.45	66.90	-0.00	0.0611	10.65	468.7	403.20	0.0520	373.4	6.722	14.14	6.11	1.59
	61.64	31.43	66.89	0.00	0.0610	10.65	468.6	403.17	0.0523	384.4	6.920	14.55	6.53	1.59
	62.65	31.40	66.88	-0.00	0.0611	10.65	468.6	403.25	0.0507	372.1	6.699	14.09	6.05	1.59
	63.65	31.43	66.89	-0.00	0.0611	10.65	468.7	403.28	0.0509	368.0	6.624	13.93	5.89	1.59
	64.65	31.43	66.84	-0.00	0.0611	10.64	468.4	403.28	0.0530	383.6	6.905	14.53	6.49	1.59
	65.64	31.45	66.89	0.00	0.0610	10.64	468.1	402.72	0.0530	391.5	7.047	14.82	6.79	1.59
	66.66	31.43	66.87	-0.00	0.0610	10.61	466.8	401.78	0.0509	378.4	6.812	14.33	6.30	1.59
	67.64	31.45	66.89	-0.00	0.0611	10.65	468.5	403.14	0.0518	380.7	6.852	14.41	6.38	1.59
	68.66	31.44	66.90	0.00	0.0610	10.63	467.7	402.39	0.0525	386.4	6.955	14.63	6.60	1.59
	69.64	31.47	66.89	0.00	0.0611	10.65	468.8	403.38	0.0527	385.7	6.942	14.60	6.58	1.59
	70.65	31.44	66.87	0.00	0.0611	10.64	468.0	402.76	0.0530	391.6	7.048	14.83	6.79	1.60
	71.65	31.45	66.89	-0.00	0.0610	10.62	467.2	401.96	0.0531	391.5	7.047	14.82	6.79	1.59
	72.67	31.43	66.89	-0.00	0.0611	10.65	468.5	403.08	0.0535	394.9	7.108	14.95	6.92	1.59
	73.66	31.43	66.89	-0.00	0.0609	10.61	467.0	401.73	0.0546	402.8	7.251	15.25	7.21	1.59
	74.63	31.45	66.89	0.00	0.0609	10.61	466.6	401.48	0.0533	377.8	6.800	14.30	6.27	1.59
	75.64	31.43	66.87	-0.00	0.0610	10.62	467.2	402.13	0.0542	398.5	7.173	15.09	7.05	1.59
	76.64	31.45	66.87	0.00	0.0609	10.60	466.6	401.61	0.0535	397.2	7.149	15.04	7.00	1.60
	77.64	31.45	66.89	0.00	0.0610	10.62	467.1	401.88	0.0540	401.8	7.233	15.21	7.17	1.59
	78.66	31.43	66.92	-0.00	0.0610	10.61	466.9	401.58	0.0535	392.3	7.061	14.84	6.82	1.59
	79.64	31.43	66.89	0.00	0.0611	10.64	468.1	402.74	0.0539	402.7	7.249	15.25	7.20	1.59
	80.72	31.43	66.89	-0.00	0.0610	10.62	467.3	402.02	0.0542	401.4	7.226	15.20	7.16	1.59
	81.65	31.43	66.87	0.00	0.0610	10.64	468.0	402.77	0.0546	406.2	7.312	15.38	7.33	1.59
	82.65	31.45	66.87	-0.00	0.0610	10.59	465.9	401.04	0.0527	381.8	6.873	14.46	6.43	1.60
	83.65	31.47	66.89	0.00	0.0610	10.63	467.8	402.49	0.0539	402.9	7.251	15.25	7.21	1.60
	84.66	31.43	66.89	-0.00	0.0609	10.63	467.7	402.40	0.0547	410.5	7.389	15.54	7.48	1.59
	85.66	31.45	66.89	-0.00	0.0610	10.60	466.5	401.37	0.0548	404.8	7.287	15.33	7.28	1.59
	86.66	31.42	66.87	-0.00	0.0610	10.58	465.6	400.72	0.0553	416.2	7.492	15.76	7.68	1.59
	87.66	31.43	66.87	0.00	0.0609	10.61	467.0	401.91	0.0550	411.9	7.415	15.60	7.53	1.59
	88.66	31.45	66.89	0.00	0.0610	10.62	467.3	402.10	0.0552	411.9	7.414	15.59	7.53	1.60
	89.64	31.43	66.87	0.00	0.0610	10.63	467.6	402.43	0.0549	408.2	7.347	15.46	7.40	1.59
	90.65	31.43	66.84	0.00	0.0610	10.63	467.6	402.60	0.0554	414.9	7.469	15.72	7.64	1.59
	91.65	31.45	66.89	0.00	0.0609	10.62	467.2	401.95	0.0559	422.8	7.610	16.01	7.92	1.59
	92.63	31.45	66.87	0.00	0.0606	10.51	462.4	398.00	0.0558	422.6	7.607	16.01	7.91	1.59
	93.65	31.43	66.88	0.00	0.0609	10.62	467.3	402.16	0.0555	418.1	7.527	15.83	7.75	1.60
	94.65	31.44	66.89	0.00	0.0608	10.62	467.1	401.87	0.0559	420.1	7.562	15.90	7.82	1.60
	95.64	31.45	66.89	-0.00	0.0609	10.58	465.4	400.43	0.0557	412.9	7.433	15.63	7.57	1.59
	96.66	31.42	66.89	-0.00	0.0607	10.55	464.2	399.35	0.0551	411.6	7.408	15.58	7.52	1.59
	97.66	31.47	66.89	-0.00	0.0609	10.58	465.6	400.61	0.0557	421.9	7.594	15.97	7.89	1.59
	98.64	31.43	66.89	-0.00	0.0610	10.59	466.1	401.00	0.0565	425.8	7.665	16.12	8.02	1.60
	99.65	31.45	66.90	-0.00	0.0609	10.57	465.1	400.15	0.0561	425.1	7.651	16.09	7.99	1.60
	100.67	31.44	66.89	-0.00	0.0607	10.54	463.9	399.14	0.0571	430.0	7.741	16.28	8.16	1.60
	101.65	31.45	66.87	0.00	0.0608	10.60	466.4	401.48	0.0571	435.1	7.832	16.48	8.34	1.59
	102.63	31.45	66.92	0.00	0.0609	10.58	465.4	400.33	0.0570	427.2	7.690	16.17	8.07	1.59
	103.65	31.45	66.87	0.00	0.0609	10.58	465.7	400.82	0.0573	433.7	7.807	16.43	8.29	1.59
	104.65	31.45	66.90	0.00	0.0609	10.61	466.7	401.56	0.0572	434.7	7.825	16.46	8.32	1.60
	105.64	31.47	66.89	0.00	0.0610	10.61	466.6	401.53	0.0574	436.2	7.851	16.51	8.37	1.60
	106.63	31.46	66.89	0.00	0.0609	10.61	466.6	401.50	0.0574	437.2	7.869	16.55	8.41	1.60
	107.66	31.47	66.89	-0.00	0.0609	10.61	466.8	401.64	0.0570	433.5	7.802	16.41	8.28	1.59
	108.66	31.47	66.89	0.00	0.0609	10.59	465.8	400.77	0.0567	425.0	7.651	16.09	7.99	1.60
	109.65	31.45	66.89	-0.00	0.0609	10.61	467.0	401.80	0.0570	432.2	7.779	16.36	8.24	1.59
	110.65	31.47	66.89	-0.00	0.0609	10.59	465.8	400.83	0.0569	428.9	7.720	16.24	8.13	1.60
	111.67	31.49	66.92	-0.00	0.0608	10.56	464.8	399.86	0.0565	429.5	7.730	16.26	8.15	1.60
	112.65	31.46	66.89	-0.00	0.0609	10.61	466.7	401.54	0.0570	432.6	7.787	16.38	8.25	1.60
	113.65	31.45	66.89	-0.00	0.0609	10.60	466.3	401.23	0.0573	434.2	7.815	16.44	8.31	1.59
	114.63	31.47	66.87	0.00	0.0609	10.59	466.0	401.08	0.0571	426.6	7.679	16.16	8.05	1.60
	115.64	31.47	66.89	0.00	0.0608	10.58	465.6	400.63	0.0563	425.7	7.662	16.12	8.02	1.60
	116.66	31.46	66.89	0.00	0.0609	10.61	466.7	401.58	0.0569	433.7	7.806	16.42	8.29	1.60
	117.64	31.46	66.89	0.00	0.0608	10.59	466.0	400.98	0.0571	431.3	7.764	16.33	8.21	1.60
	118.64	31.47	66.84	0.00	0.0609	10.59	465.8	401.07	0.0576	436.1	7.849	16.52	8.37	1.60
	119.65	31.43	66.89	-0.00	0.0609	10.60	466.5	401.36	0.0573	433.9	7.810	16.42	8.29	1.60
	120.65	31.45	66.89	-0.00	0.0610	10.61	467.0	401.78	0.0576	436.0	7.848	16.51	8.37	1.59
	121.63	31.47	66.87	0.00	0.0608	10.59	466.0	401.08	0.0575	435.5	7.839	16.49	8.35	1.60
	122.65	31.47	66.90	0.00	0.0610	10.61	467.1	401.83	0.0581	443.6	7.984	16.79	8.62	1.60
	123.63	31.47	66.87	0.00	0.0609	10.62	467.3	402.27	0.0584	447.7	8.058	16.96	8.76	1.60
	124.63	31.47	66.92	0.00	0.0608	10.58	465.4	400.29	0.0572	440.1	7.922	16.66	8.51	1.60
	125.66	31.49	66.90	-0.00	0.0609	10.61	466.8	401.64	0.0585	448.4	8.072	16.98	8.79	1.60
