Jul 28 2015 at 16:33:27
Frequency: 1.00Hz.
CO2
Zero:  Value:0.95  Date:18 Mar 2005	 at 07:22:33	
Span:  Value:1.00  Date:18 Mar 2005	 at 07:25:09	
H2O
Zero:  Value:0.71  Date:18 Mar 2005	 at 07:52:31	
Span:  Value:0.99  Date:18 Mar 2005	 at 11:44:01	
	Relative Time	Temperature	Pressure	Aux Input	CO2 Absorptance	CO2 mmol/m3	CO2 mg/m3	CO2 umol/mol	H2O Absorptance	H2O mmol/m3	H2O g/m3	H2O mmol/mol	H2O(°C)	Cooler Voltage
	1.00	31.55	66.89	0.00	0.0628	11.02	485.1	417.49	0.0380	250.2	4.504	9.48	0.45	1.59
	2.00	31.55	66.89	-0.00	0.0628	11.04	485.7	418.04	0.0385	248.2	4.468	9.40	0.34	1.60
	2.98	31.54	66.90	-0.00	0.0630	11.04	485.9	418.19	0.0375	246.0	4.428	9.31	0.21	1.60
	3.99	31.53	66.89	0.00	0.0628	11.05	486.2	418.48	0.0374	242.4	4.363	9.18	0.01	1.59
	4.99	31.54	66.89	-0.00	0.0627	11.03	485.3	417.66	0.0372	245.8	4.424	9.31	0.20	1.60
	5.97	31.57	66.90	0.00	0.0626	11.01	484.5	417.03	0.0379	246.0	4.428	9.32	0.21	1.59
	6.99	31.56	66.87	-0.00	0.0628	11.05	486.1	418.52	0.0380	248.5	4.473	9.41	0.35	1.60
	7.97	31.58	66.87	0.00	0.0626	10.99	483.4	416.27	0.0385	255.8	4.604	9.69	0.75	1.60
	8.99	31.56	66.87	-0.00	0.0625	10.95	482.0	415.02	0.0383	252.2	4.540	9.56	0.56	1.60
	9.98	31.59	66.89	0.00	0.0622	10.94	481.1	414.18	0.0392	261.5	4.706	9.90	1.06	1.59
	10.97	31.60	66.89	0.00	0.0623	10.92	480.4	413.57	0.0397	263.0	4.734	9.96	1.14	1.59
	11.98	31.57	66.92	-0.00	0.0621	10.89	479.2	412.35	0.0395	261.6	4.709	9.90	1.06	1.59
	12.98	31.56	66.89	0.00	0.0622	10.90	479.8	412.93	0.0396	263.9	4.751	10.00	1.19	1.59
	13.98	31.57	66.89	-0.00	0.0623	10.92	480.4	413.52	0.0400	267.7	4.818	10.14	1.38	1.60
	14.98	31.57	66.89	-0.00	0.0624	10.94	481.4	414.35	0.0402	268.1	4.825	10.15	1.40	1.60
	15.99	31.57	66.90	0.00	0.0622	10.91	479.9	413.05	0.0398	263.1	4.736	9.96	1.14	1.59
	16.99	31.57	66.87	0.00	0.0621	10.90	479.5	412.86	0.0396	267.2	4.809	10.12	1.36	1.59
	17.97	31.57	66.89	0.00	0.0623	10.90	479.6	412.78	0.0412	266.2	4.792	10.08	1.31	1.59
	18.98	31.57	66.87	0.00	0.0621	10.88	478.6	412.13	0.0393	267.0	4.806	10.12	1.35	1.59
	19.98	31.57	66.89	0.00	0.0621	10.86	478.0	411.46	0.0397	262.1	4.719	9.93	1.09	1.59
	20.98	31.59	66.89	0.00	0.0621	10.87	478.3	411.70	0.0396	263.6	4.746	9.99	1.17	1.60
	22.00	31.57	66.89	-0.00	0.0621	10.87	478.1	411.56	0.0393	260.4	4.687	9.86	1.00	1.59
	23.00	31.56	66.89	-0.00	0.0622	10.90	479.4	412.61	0.0412	272.2	4.900	10.31	1.62	1.59
	23.98	31.60	66.92	0.00	0.0622	10.89	479.1	412.30	0.0404	272.6	4.906	10.32	1.64	1.59
	25.04	31.57	66.90	0.00	0.0621	10.86	477.8	411.22	0.0400	265.7	4.783	10.06	1.28	1.59
	25.97	31.59	66.89	0.00	0.0622	10.88	478.9	412.24	0.0409	269.7	4.854	10.21	1.49	1.60
	27.05	31.56	66.86	-0.00	0.0624	10.94	481.3	414.47	0.0418	283.5	5.103	10.74	2.19	1.60
	28.05	31.57	66.87	0.00	0.0624	10.93	481.1	414.22	0.0419	282.5	5.085	10.70	2.14	1.59
	29.00	31.54	66.89	-0.00	0.0624	10.94	481.3	414.19	0.0421	283.8	5.108	10.75	2.20	1.59
	30.00	31.57	66.91	-0.00	0.0624	10.93	481.1	413.98	0.0423	284.8	5.127	10.78	2.25	1.59
	30.98	31.55	66.87	0.00	0.0624	10.94	481.3	414.37	0.0428	288.7	5.196	10.94	2.44	1.59
	31.98	31.57	66.89	0.00	0.0623	10.93	481.1	414.09	0.0424	289.9	5.218	10.98	2.50	1.60
	32.98	31.53	66.89	0.00	0.0624	10.95	481.6	414.53	0.0428	292.6	5.267	11.08	2.63	1.60
	33.98	31.53	66.87	0.00	0.0623	10.90	479.7	412.96	0.0422	281.8	5.072	10.67	2.10	1.59
	35.04	31.55	66.89	0.00	0.0623	10.94	481.5	414.44	0.0432	297.3	5.351	11.26	2.85	1.59
	35.97	31.55	66.89	0.00	0.0622	10.90	479.7	412.88	0.0428	290.0	5.221	10.98	2.50	1.59
	36.97	31.58	66.89	0.00	0.0623	10.92	480.4	413.54	0.0430	292.8	5.271	11.09	2.64	1.60
	38.06	31.55	66.90	-0.00	0.0623	10.92	480.3	413.34	0.0429	291.8	5.253	11.05	2.59	1.60
	38.98	31.56	66.89	0.00	0.0625	10.98	483.3	416.01	0.0444	308.3	5.549	11.67	3.37	1.59
	40.00	31.55	66.89	0.00	0.0623	10.94	481.2	414.17	0.0438	301.9	5.433	11.43	3.07	1.60
	40.98	31.57	66.90	0.00	0.0621	10.88	478.9	412.22	0.0426	294.6	5.304	11.16	2.73	1.59
	42.00	31.60	66.89	-0.00	0.0621	10.87	478.3	411.75	0.0420	285.1	5.132	10.80	2.27	1.59
	42.99	31.57	66.86	-0.00	0.0622	10.88	478.9	412.39	0.0423	285.7	5.143	10.83	2.30	1.60
	43.99	31.59	66.89	-0.00	0.0622	10.90	479.4	412.69	0.0428	291.8	5.252	11.05	2.59	1.60
	44.98	31.60	66.89	0.00	0.0621	10.88	478.9	412.23	0.0426	290.5	5.229	11.00	2.53	1.60
	45.99	31.57	66.89	-0.00	0.0621	10.88	478.7	412.02	0.0427	290.9	5.236	11.02	2.55	1.60
	46.99	31.59	66.89	-0.00	0.0624	10.94	481.4	414.40	0.0444	303.5	5.463	11.49	3.15	1.60
	47.97	31.57	66.84	0.00	0.0622	10.88	478.6	412.23	0.0431	292.4	5.263	11.08	2.62	1.60
	48.97	31.59	66.89	0.00	0.0623	10.91	480.0	413.23	0.0435	297.7	5.358	11.28	2.87	1.60
	49.97	31.59	66.84	0.00	0.0624	10.93	480.8	414.18	0.0440	301.0	5.418	11.41	3.03	1.60
	50.97	31.61	66.87	0.00	0.0624	10.93	481.0	414.20	0.0444	306.2	5.511	11.60	3.27	1.60
	51.98	31.62	66.89	0.00	0.0624	10.95	481.6	414.60	0.0447	310.0	5.579	11.74	3.45	1.60
	52.98	31.62	66.87	-0.00	0.0623	10.93	480.8	414.10	0.0442	303.8	5.468	11.51	3.16	1.59
	53.98	31.62	66.89	0.00	0.0624	10.94	481.3	414.34	0.0444	305.6	5.501	11.58	3.25	1.60
	55.01	31.59	66.92	0.00	0.0625	10.97	482.7	415.32	0.0451	314.3	5.657	11.90	3.64	1.60
	55.97	31.60	66.89	0.00	0.0623	10.92	480.6	413.73	0.0443	306.8	5.522	11.62	3.30	1.60
	56.99	31.59	66.87	-0.00	0.0624	10.94	481.3	414.45	0.0451	311.3	5.604	11.80	3.51	1.60
	58.00	31.60	66.91	-0.00	0.0627	11.00	484.0	416.49	0.0465	324.4	5.840	12.28	4.09	1.60
	58.98	31.54	66.90	0.00	0.0627	11.01	484.5	416.96	0.0466	327.5	5.896	12.40	4.23	1.60
	59.98	31.59	66.92	0.00	0.0627	10.99	483.6	416.17	0.0467	324.7	5.845	12.29	4.10	1.60
	61.00	31.62	66.89	0.00	0.0624	10.95	481.7	414.69	0.0454	316.8	5.703	12.00	3.76	1.60
	61.98	31.57	66.84	0.00	0.0627	10.99	483.4	416.43	0.0467	324.5	5.841	12.30	4.09	1.60
	62.98	31.61	66.90	0.00	0.0627	10.97	482.8	415.58	0.0465	321.7	5.790	12.18	3.97	1.60
	63.98	31.55	66.87	0.00	0.0625	10.96	482.2	415.18	0.0460	319.9	5.758	12.12	3.89	1.60
	64.97	31.57	66.89	0.00	0.0625	10.98	483.0	415.71	0.0459	322.6	5.806	12.22	4.01	1.60
	65.97	31.57	66.90	-0.00	0.0624	10.94	481.4	414.30	0.0455	316.7	5.701	11.99	3.75	1.60
	66.96	31.58	66.89	0.00	0.0625	10.96	482.0	414.91	0.0461	321.1	5.779	12.16	3.94	1.60
	67.98	31.57	66.87	0.00	0.0622	10.89	479.2	412.61	0.0448	311.0	5.598	11.78	3.49	1.60
	69.00	31.57	66.87	-0.00	0.0624	10.90	479.7	413.08	0.0458	312.2	5.619	11.83	3.54	1.60
	69.98	31.60	66.94	-0.00	0.0625	10.96	482.4	414.93	0.0461	323.3	5.819	12.24	4.04	1.60
	71.00	31.57	66.87	-0.00	0.0624	10.96	482.1	415.11	0.0461	323.4	5.821	12.25	4.05	1.60
	72.00	31.60	66.92	-0.00	0.0629	11.04	485.9	418.12	0.0479	338.6	6.095	12.82	4.70	1.60
	72.98	31.57	66.86	0.00	0.0630	11.09	488.1	420.31	0.0487	349.8	6.296	13.25	5.17	1.60
	73.98	31.57	66.89	0.00	0.0630	11.08	487.4	419.51	0.0486	346.8	6.242	13.13	5.04	1.60
	74.97	31.59	66.87	0.00	0.0627	11.02	484.9	417.52	0.0475	337.2	6.070	12.78	4.64	1.60
	75.97	31.59	66.87	0.00	0.0626	10.98	483.3	416.15	0.0474	333.7	6.007	12.64	4.49	1.60
	76.97	31.61	66.90	0.00	0.0626	10.99	483.6	416.25	0.0474	335.0	6.030	12.69	4.55	1.60
	77.98	31.59	66.89	-0.00	0.0626	10.99	483.7	416.40	0.0475	336.7	6.060	12.75	4.62	1.60
	78.97	31.64	66.89	0.00	0.0626	11.02	485.0	417.60	0.0475	341.1	6.140	12.92	4.81	1.60
	79.98	31.59	66.89	0.00	0.0626	10.99	483.7	416.35	0.0476	335.6	6.040	12.71	4.57	1.60
	80.97	31.62	66.89	0.00	0.0627	11.01	484.2	416.88	0.0479	338.7	6.096	12.83	4.71	1.60
	81.98	31.62	66.87	0.00	0.0627	11.02	484.7	417.39	0.0481	342.0	6.156	12.96	4.85	1.60
	82.99	31.62	66.90	-0.00	0.0629	11.06	486.4	418.73	0.0491	350.8	6.314	13.29	5.21	1.60
	83.99	31.59	66.89	-0.00	0.0626	11.00	484.0	416.66	0.0478	341.3	6.143	12.93	4.82	1.60
	84.97	31.59	66.87	0.00	0.0626	10.99	483.6	416.43	0.0477	337.8	6.081	12.80	4.67	1.60
	86.00	31.59	66.94	0.00	0.0627	10.99	483.6	416.01	0.0484	340.1	6.122	12.87	4.77	1.60
	86.99	31.59	66.89	0.00	0.0631	11.10	488.4	420.44	0.0501	362.5	6.525	13.73	5.68	1.60
	87.97	31.56	66.92	0.00	0.0628	11.02	485.1	417.34	0.0486	345.6	6.221	13.08	4.99	1.60
	88.97	31.59	66.89	0.00	0.0629	11.05	486.0	418.33	0.0494	350.9	6.317	13.29	5.22	1.60
	89.98	31.59	66.87	0.00	0.0628	11.05	486.3	418.71	0.0490	354.0	6.373	13.41	5.34	1.60
	90.98	31.63	66.87	0.00	0.0628	11.04	485.8	418.43	0.0493	353.0	6.353	13.37	5.30	1.60
	91.96	31.58	66.87	0.00	0.0626	10.99	483.6	416.47	0.0486	346.7	6.241	13.14	5.04	1.60
	92.99	31.57	66.87	-0.00	0.0627	11.01	484.5	417.16	0.0491	351.2	6.322	13.31	5.23	1.60
	93.97	31.59	66.90	-0.00	0.0627	11.00	484.2	416.78	0.0491	350.3	6.305	13.27	5.19	1.60
	94.99	31.59	66.90	-0.00	0.0627	11.02	485.0	417.46	0.0491	352.0	6.336	13.33	5.26	1.60
	95.97	31.59	66.89	0.00	0.0631	11.08	487.5	419.69	0.0505	361.4	6.505	13.69	5.64	1.60
	96.99	31.62	66.89	-0.00	0.0629	11.08	487.3	419.51	0.0499	361.9	6.515	13.71	5.66	1.60
	98.05	31.59	66.89	0.00	0.0628	11.02	484.8	417.35	0.0498	355.0	6.391	13.45	5.38	1.60
	98.97	31.61	66.89	0.00	0.0628	11.03	485.2	417.67	0.0495	355.1	6.392	13.45	5.39	1.60
	99.98	31.61	66.87	0.00	0.0628	11.02	484.9	417.54	0.0496	355.1	6.391	13.45	5.39	1.60
	100.98	31.62	66.87	0.00	0.0628	11.03	485.3	417.95	0.0497	357.4	6.434	13.54	5.48	1.60
	101.98	31.59	66.87	0.00	0.0631	11.09	487.9	420.16	0.0505	364.3	6.557	13.80	5.75	1.60
	102.98	31.61	66.87	0.00	0.0629	11.06	486.8	419.18	0.0503	362.9	6.533	13.75	5.70	1.60
	103.97	31.61	66.87	0.00	0.0629	11.05	486.1	418.60	0.0502	361.7	6.511	13.71	5.65	1.60
	104.97	31.63	66.89	0.00	0.0629	11.06	486.7	418.99	0.0505	364.2	6.555	13.79	5.75	1.60
	105.97	31.60	66.87	0.00	0.0628	11.05	486.0	418.54	0.0504	363.7	6.547	13.78	5.73	1.60
	106.99	31.59	66.87	-0.00	0.0629	11.04	485.9	418.46	0.0504	363.5	6.544	13.77	5.72	1.60
	107.97	31.64	66.84	0.00	0.0630	11.07	486.9	419.54	0.0508	368.0	6.624	13.95	5.90	1.60
	109.00	31.58	66.92	-0.00	0.0629	11.07	487.1	419.15	0.0508	368.4	6.632	13.95	5.92	1.60
	110.00	31.62	66.87	-0.00	0.0630	11.08	487.7	420.02	0.0509	369.0	6.642	13.98	5.94	1.60
	110.98	31.56	66.89	0.00	0.0629	11.05	486.4	418.63	0.0509	368.1	6.626	13.94	5.90	1.60
	111.98	31.61	66.87	-0.00	0.0631	11.08	487.6	419.95	0.0512	371.3	6.683	14.07	6.03	1.60
	112.98	31.62	66.89	0.00	0.0630	11.06	486.8	419.10	0.0510	369.9	6.659	14.01	5.98	1.60
	113.97	31.62	66.89	0.00	0.0629	11.06	486.5	418.80	0.0509	369.4	6.650	13.99	5.96	1.60
	114.97	31.62	66.89	0.00	0.0630	11.06	486.7	419.03	0.0511	371.2	6.682	14.06	6.03	1.60
	115.97	31.58	66.89	0.00	0.0630	11.07	487.3	419.41	0.0514	372.9	6.713	14.12	6.09	1.60
	116.97	31.59	66.92	0.00	0.0634	11.18	491.8	423.17	0.0528	389.1	7.004	14.73	6.71	1.60
	117.98	31.59	66.89	-0.00	0.0632	11.12	489.4	421.25	0.0520	381.0	6.858	14.43	6.40	1.60
	118.97	31.59	66.89	0.00	0.0633	11.15	490.5	422.23	0.0527	386.6	6.959	14.64	6.61	1.60
