Jul 28 2015 at 9:57:48
Frequency: 1.00Hz.
CO2
Zero:  Value:0.95  Date:18 Mar 2005	 at 07:22:33	
Span:  Value:1.00  Date:18 Mar 2005	 at 07:25:09	
H2O
Zero:  Value:0.71  Date:18 Mar 2005	 at 07:52:31	
Span:  Value:0.99  Date:18 Mar 2005	 at 11:44:01	
	Relative Time	Temperature	Pressure	Aux Input	CO2 Absorptance	CO2 mmol/m3	CO2 mg/m3	CO2 umol/mol	H2O Absorptance	H2O mmol/m3	H2O g/m3	H2O mmol/mol	H2O(°C)	Cooler Voltage
	0.83	19.03	67.65	0.00	0.0620	10.83	476.3	388.73	0.0420	284.5	5.122	10.22	1.65	1.52
	1.92	19.03	67.62	-0.00	0.0620	10.82	476.1	388.67	0.0423	285.5	5.140	10.26	1.70	1.52
	2.90	19.01	67.63	-0.00	0.0621	10.81	475.6	388.25	0.0439	301.6	5.429	10.83	2.46	1.52
	3.85	19.01	67.65	-0.00	0.0618	10.82	476.1	388.54	0.0436	294.8	5.306	10.58	2.14	1.52
	4.82	18.99	67.65	0.00	0.0620	10.82	476.0	388.36	0.0430	294.6	5.302	10.58	2.13	1.52
	5.83	19.03	67.65	-0.00	0.0621	10.82	475.9	388.35	0.0433	294.7	5.305	10.58	2.14	1.52
	6.83	19.03	67.63	-0.00	0.0618	10.80	475.1	387.88	0.0437	297.3	5.352	10.68	2.27	1.52
	7.83	19.03	67.67	0.00	0.0619	10.76	473.3	386.12	0.0440	300.3	5.405	10.78	2.40	1.52
	8.83	19.03	67.65	0.00	0.0617	10.76	473.4	386.32	0.0437	297.5	5.354	10.68	2.27	1.52
	9.83	19.03	67.62	-0.00	0.0618	10.75	473.1	386.27	0.0445	303.0	5.454	10.88	2.53	1.52
	10.84	19.03	67.62	0.00	0.0617	10.76	473.5	386.58	0.0437	294.7	5.305	10.59	2.14	1.51
	11.84	19.04	67.65	-0.00	0.0616	10.76	473.4	386.33	0.0438	296.6	5.338	10.65	2.23	1.52
	12.86	19.03	67.65	-0.00	0.0617	10.69	470.5	383.96	0.0445	310.2	5.583	11.14	2.86	1.52
	13.84	19.01	67.63	0.00	0.0616	10.71	471.1	384.58	0.0445	306.2	5.511	11.00	2.67	1.52
	14.84	19.04	67.65	0.00	0.0614	10.71	471.2	384.55	0.0452	313.7	5.646	11.26	3.02	1.52
	15.91	19.03	67.65	-0.00	0.0617	10.70	471.0	384.35	0.0456	316.7	5.701	11.37	3.15	1.52
	16.83	19.05	67.63	0.00	0.0615	10.71	471.3	384.75	0.0458	314.9	5.667	11.31	3.07	1.51
	17.83	19.04	67.68	0.00	0.0614	10.70	470.9	384.18	0.0454	315.7	5.682	11.33	3.11	1.52
	18.84	19.05	67.65	0.00	0.0615	10.67	469.5	383.15	0.0465	324.4	5.840	11.65	3.50	1.52
	19.84	19.04	67.65	-0.00	0.0612	10.66	468.9	382.67	0.0462	319.9	5.759	11.49	3.30	1.52
	20.84	19.05	67.62	0.00	0.0613	10.62	467.5	381.66	0.0479	341.5	6.148	12.27	4.23	1.52
	21.84	19.05	67.63	-0.00	0.0612	10.64	468.2	382.24	0.0471	337.9	6.081	12.14	4.07	1.52
	22.82	19.04	67.65	0.00	0.0608	10.59	465.9	380.19	0.0490	346.1	6.231	12.43	4.42	1.51
	23.85	19.08	67.62	-0.00	0.0611	10.58	465.3	379.96	0.0499	353.2	6.358	12.69	4.71	1.52
	24.84	19.06	67.65	0.00	0.0609	10.56	464.8	379.32	0.0501	358.2	6.448	12.86	4.91	1.51
	25.85	19.06	67.61	-0.00	0.0607	10.56	464.6	379.42	0.0501	356.5	6.417	12.81	4.84	1.52
	26.83	19.04	67.65	0.00	0.0608	10.58	465.5	379.95	0.0490	350.4	6.307	12.58	4.59	1.52
	27.83	19.06	67.57	0.00	0.0609	10.60	466.6	381.25	0.0484	344.8	6.206	12.40	4.36	1.51
	28.83	19.08	67.68	0.00	0.0612	10.60	466.3	380.44	0.0482	341.9	6.154	12.27	4.24	1.52
	29.84	19.06	67.65	-0.00	0.0611	10.58	465.7	380.08	0.0479	337.2	6.069	12.11	4.04	1.51
	30.84	19.08	67.63	-0.00	0.0611	10.57	465.3	379.87	0.0479	337.5	6.076	12.13	4.06	1.52
	31.82	19.06	67.65	0.00	0.0612	10.60	466.4	380.62	0.0481	339.1	6.104	12.18	4.12	1.52
	32.84	19.08	67.65	0.00	0.0612	10.60	466.3	380.58	0.0481	340.2	6.123	12.22	4.17	1.52
	33.84	19.08	67.65	0.00	0.0610	10.58	465.4	379.84	0.0484	340.5	6.129	12.23	4.18	1.52
	34.85	19.08	67.63	-0.00	0.0610	10.57	464.9	379.57	0.0491	347.8	6.260	12.49	4.49	1.51
	35.83	19.09	67.63	-0.00	0.0610	10.56	464.6	379.36	0.0492	348.2	6.268	12.51	4.50	1.51
	36.85	19.09	67.65	0.00	0.0609	10.55	464.1	378.86	0.0497	354.1	6.373	12.72	4.74	1.51
	37.85	19.08	67.65	-0.00	0.0609	10.54	463.6	378.37	0.0501	358.1	6.446	12.86	4.91	1.52
	38.83	19.10	67.65	-0.00	0.0608	10.51	462.6	377.64	0.0502	359.5	6.472	12.91	4.96	1.52
	39.84	19.13	67.65	-0.00	0.0609	10.51	462.6	377.67	0.0503	360.2	6.484	12.94	4.99	1.52
	40.90	19.11	67.65	-0.00	0.0607	10.50	462.0	377.18	0.0504	364.6	6.563	13.10	5.17	1.52
	41.84	19.10	67.65	-0.00	0.0607	10.49	461.5	376.71	0.0509	364.1	6.553	13.08	5.14	1.52
	42.82	19.11	67.65	0.00	0.0606	10.44	459.4	374.98	0.0519	380.4	6.847	13.66	5.77	1.52
	43.84	19.11	67.65	-0.00	0.0605	10.44	459.4	375.06	0.0521	379.8	6.836	13.64	5.75	1.52
	44.84	19.11	67.63	0.00	0.0604	10.45	460.0	375.64	0.0518	377.6	6.797	13.57	5.67	1.52
	45.85	19.09	67.65	0.00	0.0604	10.42	458.6	374.32	0.0525	385.7	6.942	13.85	5.97	1.51
	46.85	19.11	67.65	-0.00	0.0601	10.40	457.5	373.45	0.0530	389.2	7.006	13.98	6.11	1.52
	47.85	19.09	67.65	0.00	0.0600	10.41	458.1	373.95	0.0527	383.1	6.896	13.76	5.88	1.52
	48.91	19.13	67.63	0.00	0.0599	10.38	456.9	373.10	0.0533	395.0	7.109	14.19	6.32	1.52
	49.86	19.11	67.65	-0.00	0.0597	10.36	455.7	372.04	0.0538	395.1	7.113	14.19	6.33	1.52
	50.84	19.13	67.65	0.00	0.0597	10.34	455.1	371.47	0.0547	402.1	7.238	14.44	6.58	1.52
	51.84	19.15	67.65	-0.00	0.0601	10.34	455.1	371.54	0.0538	401.3	7.223	14.41	6.55	1.52
	52.84	19.15	67.65	-0.00	0.0601	10.35	455.2	371.67	0.0541	399.0	7.181	14.33	6.47	1.52
	53.84	19.14	67.63	-0.00	0.0599	10.34	455.0	371.62	0.0542	401.4	7.226	14.42	6.56	1.52
	54.85	19.15	67.65	-0.00	0.0599	10.34	455.1	371.51	0.0545	402.2	7.239	14.45	6.58	1.52
	55.83	19.14	67.65	-0.00	0.0596	10.33	454.5	371.06	0.0542	401.2	7.222	14.41	6.55	1.52
	56.83	19.13	67.65	0.00	0.0596	10.31	453.7	370.40	0.0543	402.7	7.249	14.46	6.60	1.52
	57.83	19.11	67.67	-0.00	0.0596	10.29	452.9	369.57	0.0550	411.1	7.400	14.76	6.90	1.52
	58.83	19.18	67.63	0.00	0.0595	10.28	452.5	369.62	0.0552	410.9	7.396	14.77	6.90	1.52
	59.83	19.16	67.65	0.00	0.0595	10.29	452.9	369.79	0.0556	411.0	7.397	14.76	6.90	1.52
	60.83	19.16	67.65	0.00	0.0592	10.25	450.8	368.06	0.0564	423.4	7.622	15.21	7.33	1.52
	61.84	19.14	67.62	0.00	0.0594	10.23	450.3	367.74	0.0559	421.3	7.583	15.14	7.26	1.52
	62.85	19.18	67.65	-0.00	0.0594	10.24	450.4	367.71	0.0568	427.9	7.703	15.37	7.49	1.51
	63.84	19.18	67.65	0.00	0.0591	10.21	449.3	366.83	0.0567	429.1	7.723	15.42	7.53	1.52
	64.85	19.20	67.65	-0.00	0.0592	10.23	450.0	367.44	0.0564	423.8	7.629	15.23	7.35	1.52
	65.83	19.18	67.65	0.00	0.0590	10.20	448.7	366.36	0.0572	432.8	7.790	15.55	7.66	1.52
	66.85	19.18	67.63	0.00	0.0592	10.18	448.0	365.94	0.0580	442.4	7.963	15.90	7.98	1.52
	67.84	19.20	67.65	-0.00	0.0593	10.17	447.3	365.26	0.0576	434.9	7.829	15.63	7.73	1.52
	68.84	19.18	67.68	0.00	0.0593	10.18	448.0	365.67	0.0574	432.5	7.785	15.53	7.65	1.52
	69.83	19.18	67.65	0.00	0.0592	10.19	448.3	366.05	0.0579	441.0	7.937	15.84	7.93	1.52
	70.83	19.19	67.65	-0.00	0.0591	10.17	447.5	365.45	0.0581	445.5	8.018	16.00	8.08	1.52
	71.84	19.20	67.65	-0.00	0.0590	10.19	448.2	365.99	0.0578	440.7	7.933	15.84	7.92	1.52
	72.84	19.21	67.65	-0.00	0.0590	10.19	448.4	366.17	0.0574	436.9	7.864	15.70	7.79	1.52
	73.83	19.21	67.63	0.00	0.0592	10.19	448.5	366.35	0.0575	435.3	7.835	15.64	7.74	1.52
	74.83	19.21	67.66	0.00	0.0592	10.17	447.4	365.32	0.0587	447.3	8.051	16.07	8.14	1.52
	75.85	19.21	67.62	0.00	0.0593	10.17	447.4	365.47	0.0585	446.4	8.035	16.04	8.11	1.52
	76.83	19.23	67.65	0.00	0.0592	10.16	447.1	365.11	0.0587	449.1	8.084	16.14	8.20	1.52
	77.83	19.23	67.63	0.00	0.0593	10.16	447.2	365.35	0.0583	440.9	7.936	15.85	7.93	1.52
	78.84	19.23	67.65	-0.00	0.0593	10.17	447.7	365.59	0.0583	445.3	8.016	16.00	8.08	1.52
	79.83	19.23	67.65	0.00	0.0591	10.16	447.1	365.12	0.0590	447.0	8.046	16.06	8.13	1.52
	80.82	19.21	67.65	0.00	0.0591	10.14	446.3	364.41	0.0592	453.8	8.169	16.31	8.36	1.52
	81.84	19.23	67.65	-0.00	0.0590	10.12	445.5	363.78	0.0592	454.4	8.179	16.33	8.37	1.52
	82.90	19.23	67.62	0.00	0.0590	10.10	444.5	363.15	0.0593	457.6	8.237	16.45	8.48	1.52
	83.83	19.21	67.62	-0.00	0.0587	10.06	442.5	361.49	0.0598	465.1	8.372	16.72	8.72	1.52
	84.85	19.25	67.62	0.00	0.0585	10.07	442.9	361.84	0.0600	463.2	8.338	16.65	8.66	1.52
	85.83	19.24	67.63	0.00	0.0584	10.03	441.3	360.54	0.0601	469.6	8.453	16.88	8.86	1.52
	86.83	19.25	67.68	0.00	0.0586	10.07	443.2	361.81	0.0594	456.5	8.217	16.40	8.44	1.52
	87.84	19.23	67.63	-0.00	0.0587	10.09	443.9	362.65	0.0601	465.7	8.383	16.74	8.74	1.52
	88.84	19.26	67.65	0.00	0.0587	10.09	444.1	362.73	0.0603	466.3	8.394	16.76	8.76	1.52
	89.90	19.24	67.65	0.00	0.0586	10.09	443.8	362.43	0.0602	464.4	8.359	16.69	8.70	1.52
	90.82	19.26	67.65	0.00	0.0586	10.08	443.4	362.12	0.0602	465.7	8.382	16.73	8.74	1.52
	91.84	19.26	67.65	0.00	0.0585	10.08	443.6	362.34	0.0605	468.7	8.437	16.84	8.83	1.52
	92.84	19.26	67.65	-0.00	0.0585	10.06	442.5	361.42	0.0609	473.8	8.529	17.03	8.99	1.52
	93.85	19.26	67.62	-0.00	0.0586	10.03	441.3	360.60	0.0611	474.2	8.536	17.05	9.01	1.52
	94.83	19.26	67.65	0.00	0.0587	10.04	441.8	360.81	0.0613	477.3	8.592	17.15	9.10	1.52
	95.85	19.28	67.65	-0.00	0.0583	10.02	440.9	360.12	0.0614	478.1	8.606	17.18	9.13	1.52
	96.85	19.28	67.65	-0.00	0.0581	9.98	439.3	358.77	0.0621	481.1	8.660	17.29	9.22	1.52
	97.83	19.26	67.63	0.00	0.0584	9.98	439.0	358.63	0.0621	487.1	8.768	17.51	9.41	1.52
	98.83	19.26	67.62	0.00	0.0585	9.99	439.4	359.02	0.0619	486.6	8.759	17.49	9.39	1.52
	99.84	19.28	67.65	-0.00	0.0582	9.97	438.7	358.29	0.0619	490.0	8.821	17.61	9.49	1.52
	100.84	19.30	67.65	0.00	0.0582	10.00	440.0	359.41	0.0615	479.7	8.634	17.24	9.18	1.52
	101.82	19.29	67.65	0.00	0.0583	9.96	438.1	357.86	0.0631	494.6	8.902	17.77	9.63	1.52
	102.85	19.28	67.65	-0.00	0.0581	9.98	439.1	358.69	0.0624	489.4	8.810	17.59	9.48	1.52
	103.82	19.31	67.65	0.00	0.0581	9.95	437.8	357.67	0.0632	495.9	8.926	17.82	9.67	1.52
	104.83	19.30	67.65	0.00	0.0583	9.96	438.4	358.13	0.0628	493.2	8.878	17.73	9.59	1.52
	105.82	19.29	67.65	0.00	0.0580	9.95	437.9	357.64	0.0628	495.2	8.914	17.80	9.65	1.52
	106.84	19.28	67.65	-0.00	0.0580	9.96	438.1	357.83	0.0628	493.8	8.889	17.75	9.61	1.52
	107.83	19.31	67.63	0.00	0.0581	9.96	438.5	358.29	0.0633	493.4	8.882	17.74	9.60	1.52
	108.84	19.31	67.65	-0.00	0.0581	9.91	436.1	356.23	0.0640	506.4	9.115	18.20	9.98	1.52
	109.84	19.33	67.63	0.00	0.0579	9.91	435.9	356.26	0.0636	502.8	9.051	18.08	9.88	1.52
	110.82	19.33	67.65	0.00	0.0578	9.91	435.9	356.06	0.0631	499.6	8.993	17.96	9.79	1.52
	111.84	19.33	67.60	0.00	0.0579	9.91	436.1	356.50	0.0633	499.3	8.988	17.96	9.78	1.52
	112.84	19.31	67.60	-0.00	0.0579	9.89	435.0	355.57	0.0641	506.5	9.117	18.22	9.99	1.52
	113.83	19.34	67.65	0.00	0.0579	9.88	434.6	355.04	0.0639	508.2	9.148	18.27	10.04	1.52
	114.83	19.35	67.65	0.00	0.0577	9.85	433.5	354.13	0.0643	517.2	9.309	18.59	10.30	1.52
	115.85	19.35	67.62	-0.00	0.0575	9.85	433.5	354.31	0.0648	515.1	9.272	18.52	10.24	1.52
	116.83	19.34	67.65	0.00	0.0575	9.86	433.7	354.35	0.0643	509.7	9.175	18.32	10.08	1.52
	117.84	19.35	67.63	-0.00	0.0577	9.85	433.3	354.11	0.0649	517.9	9.323	18.62	10.32	1.52
	118.90	19.35	67.65	-0.00	0.0577	9.84	433.1	353.84	0.0648	519.0	9.342	18.66	10.36	1.52
	119.83	19.34	67.63	0.00	0.0575	9.86	433.9	354.56	0.0645	517.2	9.310	18.60	10.30	1.52
	120.82	19.35	67.65	-0.00	0.0574	9.83	432.3	353.22	0.0652	519.2	9.346	18.67	10.36	1.52
	121.84	19.35	67.65	-0.00	0.0575	9.79	430.9	351.98	0.0661	531.6	9.570	19.11	10.72	1.52
	122.82	19.34	67.65	0.00	0.0577	9.81	431.4	352.47	0.0656	529.1	9.523	19.02	10.64	1.52
	123.83	19.36	67.63	0.00	0.0574	9.78	430.3	351.67	0.0660	531.7	9.571	19.12	10.72	1.52
