Jul 28 2015 at 11:06:06
Frequency: 1.00Hz.
CO2
Zero:  Value:0.95  Date:18 Mar 2005	 at 07:22:33	
Span:  Value:1.00  Date:18 Mar 2005	 at 07:25:09	
H2O
Zero:  Value:0.71  Date:18 Mar 2005	 at 07:52:31	
Span:  Value:0.99  Date:18 Mar 2005	 at 11:44:01	
	Relative Time	Temperature	Pressure	Aux Input	CO2 Absorptance	CO2 mmol/m3	CO2 mg/m3	CO2 umol/mol	H2O Absorptance	H2O mmol/m3	H2O g/m3	H2O mmol/mol	H2O(°C)	Cooler Voltage
	0.67	28.74	67.65	0.00	0.0624	10.89	479.4	404.19	0.0395	259.8	4.676	9.64	0.84	1.58
	1.65	28.76	67.67	0.00	0.0623	10.87	478.5	403.34	0.0397	262.2	4.719	9.72	0.97	1.59
	2.67	28.74	67.65	0.00	0.0623	10.88	478.7	403.62	0.0396	263.2	4.737	9.76	1.02	1.59
	3.67	28.72	67.65	-0.00	0.0623	10.89	479.1	403.91	0.0395	261.3	4.704	9.70	0.92	1.59
	4.67	28.70	67.65	0.00	0.0623	10.88	478.6	403.51	0.0398	262.6	4.726	9.74	0.98	1.59
	5.66	28.70	67.65	-0.00	0.0620	10.82	476.2	401.46	0.0394	260.4	4.687	9.66	0.87	1.58
	6.68	28.70	67.65	-0.00	0.0619	10.82	476.2	401.49	0.0394	259.8	4.676	9.64	0.84	1.58
	7.67	28.69	67.65	0.00	0.0620	10.81	475.6	401.01	0.0394	259.3	4.667	9.62	0.81	1.58
	8.67	28.70	67.65	-0.00	0.0620	10.82	476.1	401.41	0.0400	262.1	4.717	9.72	0.96	1.58
	9.69	28.68	67.67	-0.00	0.0619	10.81	475.7	400.92	0.0401	265.7	4.783	9.85	1.15	1.58
	10.67	28.71	67.65	0.00	0.0620	10.81	475.6	400.96	0.0399	265.0	4.770	9.83	1.11	1.58
	11.67	28.70	67.65	0.00	0.0621	10.82	476.3	401.53	0.0408	270.1	4.863	10.02	1.38	1.58
	12.67	28.72	67.65	-0.00	0.0621	10.81	475.5	400.90	0.0410	274.2	4.936	10.17	1.59	1.58
	13.67	28.72	67.67	0.00	0.0620	10.82	476.0	401.24	0.0414	276.1	4.970	10.24	1.69	1.58
	14.66	28.68	67.65	-0.00	0.0619	10.81	475.6	400.96	0.0414	279.3	5.027	10.36	1.84	1.58
	15.68	28.68	67.65	-0.00	0.0619	10.81	475.6	400.95	0.0420	283.1	5.096	10.50	2.03	1.58
	16.66	28.68	67.65	0.00	0.0619	10.80	475.3	400.69	0.0422	283.2	5.097	10.50	2.04	1.58
	17.68	28.66	67.65	-0.00	0.0619	10.80	475.2	400.56	0.0424	287.4	5.174	10.66	2.24	1.58
	18.66	28.69	67.65	0.00	0.0617	10.79	474.8	400.32	0.0426	288.2	5.188	10.69	2.28	1.58
	19.67	28.68	67.67	-0.00	0.0617	10.78	474.1	399.56	0.0426	287.9	5.182	10.68	2.27	1.58
	20.66	28.66	67.65	0.00	0.0618	10.78	474.3	399.88	0.0430	291.8	5.253	10.82	2.46	1.58
	21.67	28.64	67.65	0.00	0.0617	10.78	474.5	399.95	0.0431	294.5	5.300	10.92	2.58	1.58
	22.67	28.73	67.65	0.00	0.0617	10.78	474.1	399.76	0.0438	298.9	5.381	11.09	2.80	1.58
	23.66	28.68	67.63	0.00	0.0618	10.79	474.6	400.25	0.0435	296.0	5.328	10.98	2.66	1.58
	24.68	28.68	67.68	-0.00	0.0617	10.77	474.0	399.45	0.0439	299.4	5.389	11.10	2.82	1.58
	25.68	28.66	67.65	-0.00	0.0616	10.76	473.3	398.95	0.0437	299.4	5.390	11.11	2.82	1.58
	26.66	28.68	67.65	0.00	0.0617	10.75	472.9	398.65	0.0439	299.7	5.395	11.12	2.84	1.58
	27.66	28.68	67.68	0.00	0.0617	10.76	473.4	398.96	0.0435	296.6	5.340	11.00	2.69	1.58
	28.67	28.68	67.60	-0.00	0.0618	10.74	472.7	398.79	0.0435	296.0	5.329	10.99	2.66	1.58
	29.66	28.70	67.65	0.00	0.0618	10.73	472.3	398.21	0.0432	293.4	5.282	10.89	2.54	1.58
	30.67	28.69	67.65	0.00	0.0618	10.75	473.1	398.82	0.0430	291.8	5.252	10.82	2.46	1.58
	31.65	28.68	67.65	0.00	0.0616	10.74	472.4	398.24	0.0433	294.9	5.308	10.94	2.60	1.58
	32.67	28.70	67.65	0.00	0.0615	10.73	472.2	398.06	0.0434	295.7	5.323	10.97	2.65	1.58
	33.65	28.70	67.65	0.00	0.0618	10.72	471.9	397.86	0.0435	295.8	5.324	10.97	2.65	1.58
	34.66	28.70	67.65	0.00	0.0617	10.71	471.4	397.44	0.0435	295.8	5.325	10.97	2.65	1.58
	35.65	28.72	67.65	0.00	0.0614	10.70	470.8	396.98	0.0434	297.1	5.348	11.02	2.71	1.58
	36.68	28.72	67.65	0.00	0.0615	10.70	470.9	397.08	0.0435	296.1	5.330	10.99	2.67	1.58
	37.67	28.70	67.65	-0.00	0.0616	10.71	471.4	397.43	0.0434	296.1	5.330	10.98	2.66	1.58
	38.66	28.70	67.60	0.00	0.0616	10.72	471.9	398.13	0.0438	299.6	5.392	11.12	2.83	1.58
	39.67	28.68	67.65	0.00	0.0613	10.70	470.7	396.86	0.0436	296.9	5.345	11.01	2.70	1.58
	40.67	28.68	67.65	-0.00	0.0615	10.70	470.9	397.01	0.0434	296.8	5.343	11.01	2.70	1.58
	41.67	28.69	67.65	0.00	0.0616	10.69	470.5	396.66	0.0437	298.6	5.375	11.08	2.78	1.58
	42.65	28.70	67.65	0.00	0.0613	10.65	468.6	395.04	0.0429	291.7	5.250	10.82	2.45	1.58
	43.65	28.68	67.65	0.00	0.0611	10.65	468.8	395.18	0.0431	292.3	5.261	10.84	2.48	1.58
	44.68	28.70	67.65	-0.00	0.0614	10.68	469.8	396.05	0.0441	303.2	5.458	11.25	3.00	1.58
	45.66	28.70	67.65	0.00	0.0615	10.69	470.2	396.43	0.0440	302.1	5.437	11.21	2.95	1.58
	46.68	28.70	67.67	0.00	0.0613	10.67	469.5	395.67	0.0441	304.4	5.479	11.29	3.05	1.58
	47.66	28.70	67.65	0.00	0.0613	10.68	470.1	396.33	0.0447	306.7	5.521	11.38	3.16	1.58
	48.67	28.70	67.68	0.00	0.0613	10.68	469.7	395.87	0.0448	307.5	5.535	11.40	3.20	1.58
	49.66	28.69	67.63	0.00	0.0613	10.66	469.1	395.66	0.0447	308.1	5.546	11.43	3.23	1.58
	50.69	28.68	67.65	-0.00	0.0613	10.66	469.1	395.47	0.0446	308.7	5.557	11.45	3.25	1.58
	51.67	28.70	67.65	0.00	0.0614	10.66	469.2	395.53	0.0451	308.5	5.553	11.44	3.24	1.58
	52.68	28.70	67.65	0.00	0.0614	10.67	469.7	395.98	0.0451	313.5	5.644	11.63	3.47	1.58
	53.66	28.72	67.65	0.00	0.0615	10.66	469.2	395.60	0.0455	314.1	5.653	11.65	3.50	1.58
	54.66	28.72	67.65	-0.00	0.0613	10.65	468.8	395.28	0.0458	316.7	5.701	11.75	3.62	1.58
	55.74	28.70	67.68	-0.00	0.0613	10.66	468.9	395.18	0.0461	319.6	5.752	11.85	3.74	1.58
	56.66	28.72	67.65	-0.00	0.0613	10.66	469.1	395.54	0.0466	325.2	5.853	12.06	3.99	1.58
	57.67	28.71	67.65	0.00	0.0611	10.64	468.2	394.73	0.0455	317.3	5.711	11.77	3.64	1.58
	58.67	28.72	67.67	-0.00	0.0613	10.66	469.2	395.50	0.0466	325.7	5.863	12.08	4.01	1.58
	59.69	28.70	67.65	-0.00	0.0614	10.65	468.6	395.06	0.0462	323.8	5.828	12.01	3.93	1.58
	60.67	28.69	67.67	0.00	0.0612	10.64	468.0	394.40	0.0462	319.8	5.756	11.86	3.75	1.58
	61.68	28.72	67.67	0.00	0.0610	10.61	467.1	393.67	0.0456	317.2	5.710	11.76	3.64	1.59
	62.67	28.70	67.65	-0.00	0.0610	10.62	467.1	393.83	0.0454	315.7	5.683	11.71	3.57	1.59
	63.66	28.70	67.65	0.00	0.0612	10.62	467.2	393.91	0.0457	314.0	5.652	11.65	3.49	1.58
	64.74	28.69	67.65	0.00	0.0610	10.62	467.4	394.06	0.0467	329.8	5.937	12.23	4.19	1.58
	65.68	28.68	67.65	-0.00	0.0611	10.62	467.1	393.80	0.0472	332.4	5.984	12.33	4.30	1.58
	66.66	28.72	67.68	0.00	0.0612	10.63	467.7	394.22	0.0478	337.8	6.080	12.53	4.53	1.58
	67.67	28.74	67.67	-0.00	0.0612	10.61	466.8	393.50	0.0475	331.7	5.971	12.30	4.28	1.58
	68.67	28.70	67.65	-0.00	0.0613	10.62	467.4	394.01	0.0489	344.5	6.200	12.78	4.81	1.58
	69.66	28.72	67.65	-0.00	0.0611	10.63	467.7	394.29	0.0489	349.8	6.297	12.98	5.04	1.58
	70.67	28.71	67.65	-0.00	0.0611	10.63	467.6	394.24	0.0490	348.6	6.274	12.93	4.98	1.58
	71.65	28.72	67.65	0.00	0.0611	10.64	468.3	394.85	0.0481	341.7	6.150	12.68	4.70	1.58
	72.67	28.72	67.65	-0.00	0.0612	10.63	467.9	394.51	0.0480	339.6	6.112	12.60	4.61	1.58
	73.68	28.72	67.67	-0.00	0.0611	10.63	467.7	394.24	0.0486	345.8	6.224	12.82	4.87	1.58
	74.68	28.73	67.65	0.00	0.0612	10.63	467.6	394.26	0.0485	345.6	6.220	12.82	4.86	1.58
	75.68	28.73	67.67	0.00	0.0612	10.62	467.4	393.97	0.0477	336.3	6.053	12.47	4.47	1.58
	76.67	28.74	67.65	0.00	0.0612	10.63	467.6	394.29	0.0491	347.6	6.257	12.90	4.94	1.58
	77.67	28.74	67.65	-0.00	0.0611	10.62	467.4	394.10	0.0493	352.3	6.342	13.07	5.14	1.58
	78.75	28.74	67.68	-0.00	0.0611	10.63	467.5	394.07	0.0492	348.5	6.273	12.93	4.98	1.58
	79.65	28.74	67.65	0.00	0.0613	10.62	467.4	394.13	0.0490	349.3	6.287	12.96	5.01	1.58
	80.67	28.71	67.65	-0.00	0.0612	10.62	467.2	393.91	0.0497	351.6	6.329	13.04	5.11	1.58
	81.67	28.72	67.67	-0.00	0.0612	10.60	466.6	393.29	0.0494	352.0	6.336	13.05	5.12	1.58
	82.65	28.69	67.67	0.00	0.0612	10.60	466.5	393.15	0.0501	357.0	6.426	13.24	5.32	1.58
	83.73	28.69	67.65	0.00	0.0611	10.61	466.9	393.67	0.0502	363.0	6.533	13.46	5.56	1.58
	84.65	28.72	67.68	0.00	0.0609	10.58	465.7	392.46	0.0496	351.5	6.327	13.03	5.10	1.58
	85.69	28.69	67.67	-0.00	0.0609	10.58	465.7	392.51	0.0497	357.3	6.431	13.25	5.34	1.58
	86.67	28.72	67.65	0.00	0.0610	10.59	466.2	393.04	0.0493	351.7	6.330	13.05	5.11	1.58
	87.67	28.70	67.68	0.00	0.0609	10.60	466.5	393.13	0.0496	355.6	6.401	13.19	5.27	1.58
	88.66	28.72	67.67	0.00	0.0609	10.58	465.5	392.34	0.0495	352.8	6.351	13.09	5.16	1.58
	89.65	28.72	67.68	0.00	0.0609	10.59	466.1	392.82	0.0499	355.8	6.405	13.20	5.28	1.58
	90.67	28.72	67.65	0.00	0.0610	10.60	466.6	393.40	0.0505	362.5	6.524	13.45	5.54	1.58
	91.67	28.70	67.65	-0.00	0.0611	10.60	466.5	393.27	0.0504	364.4	6.560	13.52	5.62	1.58
	92.67	28.72	67.70	-0.00	0.0611	10.60	466.2	392.75	0.0502	361.2	6.501	13.39	5.49	1.58
	93.66	28.69	67.65	-0.00	0.0611	10.59	466.0	392.85	0.0503	360.5	6.489	13.37	5.47	1.58
	94.74	28.68	67.68	-0.00	0.0609	10.60	466.3	392.94	0.0503	361.3	6.503	13.40	5.50	1.58
	95.67	28.68	67.68	-0.00	0.0609	10.58	465.7	392.45	0.0502	360.4	6.487	13.36	5.46	1.58
	96.67	28.68	67.65	0.00	0.0610	10.58	465.3	392.28	0.0502	361.8	6.512	13.42	5.51	1.58
	97.73	28.68	67.65	0.00	0.0610	10.56	464.8	391.81	0.0503	359.5	6.471	13.33	5.42	1.58
	98.67	28.68	67.65	-0.00	0.0609	10.59	466.1	392.92	0.0503	361.7	6.511	13.42	5.51	1.58
	99.67	28.68	67.68	0.00	0.0611	10.60	466.2	392.89	0.0509	366.5	6.598	13.59	5.70	1.58
	100.65	28.68	67.67	0.00	0.0612	10.59	466.0	392.76	0.0508	364.4	6.560	13.51	5.62	1.58
	101.67	28.70	67.65	-0.00	0.0612	10.59	466.1	392.96	0.0506	363.0	6.534	13.47	5.56	1.59
	102.65	28.69	67.65	0.00	0.0611	10.59	466.0	392.86	0.0511	368.2	6.628	13.66	5.77	1.58
	103.66	28.71	67.68	0.00	0.0612	10.60	466.6	393.24	0.0513	371.4	6.686	13.77	5.90	1.58
	104.66	28.72	67.65	-0.00	0.0611	10.59	466.0	392.93	0.0515	372.7	6.709	13.83	5.95	1.58
	105.67	28.72	67.65	-0.00	0.0610	10.58	465.6	392.58	0.0517	374.1	6.733	13.88	6.00	1.58
	106.72	28.71	67.67	0.00	0.0610	10.59	466.1	392.88	0.0519	377.9	6.803	14.02	6.15	1.58
	107.67	28.71	67.63	-0.00	0.0612	10.60	466.6	393.56	0.0518	376.5	6.777	13.97	6.09	1.59
	108.66	28.71	67.65	0.00	0.0611	10.61	467.1	393.77	0.0519	376.9	6.785	13.98	6.11	1.58
	109.68	28.71	67.67	-0.00	0.0609	10.61	467.0	393.61	0.0521	380.0	6.841	14.09	6.23	1.58
	110.68	28.71	67.67	-0.00	0.0610	10.61	466.8	393.44	0.0518	378.8	6.818	14.05	6.18	1.58
	111.65	28.71	67.65	0.00	0.0612	10.62	467.1	393.88	0.0519	377.9	6.803	14.02	6.15	1.58
	112.66	28.75	67.65	0.00	0.0610	10.59	465.8	392.81	0.0520	377.2	6.790	14.00	6.12	1.59
	113.66	28.72	67.65	-0.00	0.0609	10.59	466.0	392.94	0.0519	378.6	6.815	14.05	6.17	1.59
	114.66	28.72	67.65	0.00	0.0609	10.60	466.2	393.07	0.0517	376.6	6.779	13.97	6.10	1.58
	115.66	28.69	67.65	0.00	0.0611	10.58	465.6	392.53	0.0516	374.4	6.739	13.89	6.01	1.58
	116.66	28.74	67.65	0.00	0.0611	10.58	465.4	392.40	0.0515	373.5	6.722	13.86	5.98	1.58
	117.66	28.72	67.65	0.00	0.0612	10.61	466.6	393.46	0.0517	376.2	6.772	13.96	6.08	1.58
	118.67	28.77	67.65	-0.00	0.0610	10.61	466.8	393.63	0.0520	377.9	6.803	14.02	6.15	1.58
	119.65	28.71	67.65	0.00	0.0610	10.60	466.6	393.42	0.0519	377.5	6.794	14.00	6.13	1.59
	120.67	28.72	67.65	0.00	0.0610	10.60	466.2	393.09	0.0519	376.7	6.781	13.98	6.10	1.59
	121.67	28.76	67.67	-0.00	0.0610	10.60	466.4	393.13	0.0522	378.8	6.819	14.05	6.18	1.58
	122.68	28.70	67.65	-0.00	0.0610	10.60	466.4	393.19	0.0523	382.2	6.880	14.18	6.31	1.58
	123.66	28.72	67.65	0.00	0.0612	10.60	466.3	393.14	0.0523	380.6	6.852	14.12	6.25	1.58
	124.68	28.74	67.65	0.00	0.0611	10.59	466.1	393.00	0.0526	380.3	6.846	14.11	6.24	1.59
	125.66	28.71	67.65	0.00	0.0609	10.61	466.7	393.51	0.0526	382.7	6.889	14.20	6.33	1.59
	126.67	28.72	67.65	-0.00	0.0610	10.60	466.4	393.24	0.0522	379.3	6.828	14.07	6.20	1.59
	127.66	28.76	67.65	0.00	0.0610	10.59	466.1	393.02	0.0519	376.2	6.771	13.96	6.08	1.58
	128.65	28.74	67.65	0.00	0.0608	10.57	465.1	392.16	0.0513	373.6	6.725	13.86	5.98	1.58
	129.67	28.74	67.65	-0.00	0.0609	10.57	465.0	392.13	0.0521	378.5	6.813	14.04	6.17	1.58
