Jul 28 2015 at 16:13:22
Frequency: 1.00Hz.
CO2
Zero:  Value:0.95  Date:18 Mar 2005	 at 07:22:33	
Span:  Value:1.00  Date:18 Mar 2005	 at 07:25:09	
H2O
Zero:  Value:0.71  Date:18 Mar 2005	 at 07:52:31	
Span:  Value:0.99  Date:18 Mar 2005	 at 11:44:01	
	Relative Time	Temperature	Pressure	Aux Input	CO2 Absorptance	CO2 mmol/m3	CO2 mg/m3	CO2 umol/mol	H2O Absorptance	H2O mmol/m3	H2O g/m3	H2O mmol/mol	H2O(°C)	Cooler Voltage
	0.44	32.12	66.92	0.00	0.0616	10.77	473.8	408.42	0.0422	287.2	5.170	10.89	2.39	1.59
	1.42	32.11	66.89	0.00	0.0615	10.75	472.8	407.71	0.0421	285.4	5.138	10.83	2.31	1.59
	2.46	32.16	66.89	-0.00	0.0615	10.74	472.5	407.50	0.0433	293.8	5.289	11.15	2.72	1.59
	3.45	32.15	66.87	0.00	0.0614	10.74	472.8	407.88	0.0436	297.4	5.353	11.29	2.89	1.59
	4.45	32.15	66.87	-0.00	0.0614	10.71	471.4	406.68	0.0439	302.1	5.438	11.47	3.11	1.59
	5.46	32.15	66.89	0.00	0.0613	10.72	471.5	406.64	0.0443	304.0	5.473	11.54	3.20	1.59
	6.44	32.20	66.90	0.00	0.0613	10.69	470.5	405.82	0.0445	306.5	5.517	11.63	3.31	1.59
	7.44	32.22	66.90	0.00	0.0614	10.72	471.7	406.84	0.0440	302.8	5.450	11.49	3.14	1.59
	8.46	32.19	66.87	-0.00	0.0614	10.70	470.6	406.08	0.0441	305.2	5.493	11.59	3.25	1.59
	9.45	32.20	66.90	-0.00	0.0613	10.69	470.2	405.56	0.0445	306.1	5.510	11.62	3.30	1.59
	10.44	32.22	66.87	0.00	0.0611	10.67	469.6	405.23	0.0453	313.7	5.646	11.91	3.64	1.59
	11.45	32.27	66.86	0.00	0.0613	10.69	470.3	405.95	0.0464	328.3	5.909	12.47	4.29	1.59
	12.45	32.22	66.91	-0.00	0.0612	10.69	470.3	405.55	0.0460	322.6	5.807	12.24	4.04	1.59
	13.43	32.23	66.89	0.00	0.0611	10.65	468.8	404.35	0.0461	323.7	5.827	12.29	4.09	1.59
	14.45	32.24	66.89	0.00	0.0608	10.59	466.1	402.08	0.0456	315.7	5.683	11.98	3.74	1.59
	15.44	32.23	66.87	0.00	0.0611	10.66	469.1	404.83	0.0461	323.9	5.831	12.30	4.10	1.59
	16.46	32.24	66.87	-0.00	0.0610	10.65	468.4	404.17	0.0453	314.7	5.665	11.95	3.69	1.59
	17.44	32.26	66.87	0.00	0.0610	10.63	467.5	403.50	0.0456	316.6	5.700	12.02	3.78	1.59
	18.45	32.23	66.87	0.00	0.0611	10.63	467.9	403.75	0.0472	331.4	5.965	12.58	4.42	1.59
	19.44	32.25	66.87	0.00	0.0610	10.62	467.4	403.35	0.0474	331.8	5.972	12.60	4.44	1.59
	20.44	32.28	66.87	0.00	0.0609	10.61	466.7	402.81	0.0484	341.7	6.150	12.98	4.87	1.59
	21.45	32.27	66.87	0.00	0.0610	10.62	467.1	403.14	0.0493	353.1	6.356	13.41	5.34	1.59
	22.45	32.27	66.87	-0.00	0.0610	10.62	467.2	403.20	0.0502	363.6	6.545	13.81	5.76	1.59
	23.45	32.27	66.87	-0.00	0.0609	10.61	466.7	402.75	0.0505	367.2	6.609	13.94	5.90	1.59
	24.43	32.30	66.87	0.00	0.0609	10.59	466.1	402.31	0.0501	365.3	6.576	13.87	5.83	1.59
	25.46	32.30	66.89	0.00	0.0608	10.59	466.2	402.24	0.0517	376.1	6.771	14.28	6.25	1.59
	26.44	32.29	66.91	0.00	0.0607	10.56	464.8	400.93	0.0515	376.1	6.769	14.27	6.25	1.59
	27.46	32.32	66.89	-0.00	0.0608	10.57	465.2	401.46	0.0515	375.4	6.757	14.25	6.22	1.59
	28.45	32.32	66.87	0.00	0.0607	10.57	465.1	401.43	0.0513	374.7	6.745	14.23	6.20	1.59
	29.52	32.29	66.89	0.00	0.0607	10.54	463.9	400.22	0.0517	377.2	6.789	14.32	6.29	1.59
	30.45	32.30	66.87	-0.00	0.0606	10.53	463.4	399.95	0.0515	373.1	6.716	14.17	6.13	1.59
	31.43	32.35	66.87	0.00	0.0606	10.53	463.4	400.02	0.0515	374.2	6.736	14.21	6.18	1.59
	32.45	32.32	66.87	0.00	0.0603	10.48	461.0	397.89	0.0523	383.6	6.905	14.57	6.54	1.59
	33.43	32.32	66.89	0.00	0.0604	10.47	460.7	397.57	0.0521	379.4	6.829	14.41	6.38	1.59
	34.46	32.34	66.89	0.00	0.0603	10.47	460.6	397.41	0.0530	391.2	7.042	14.85	6.82	1.59
	35.44	32.32	66.87	0.00	0.0604	10.48	461.2	398.10	0.0537	397.8	7.161	15.11	7.07	1.59
	36.43	32.34	66.87	0.00	0.0603	10.47	460.8	397.78	0.0539	400.3	7.205	15.20	7.16	1.59
	37.44	32.32	66.87	-0.00	0.0604	10.49	461.4	398.27	0.0545	404.4	7.280	15.36	7.31	1.59
	38.45	32.34	66.89	-0.00	0.0604	10.49	461.6	398.30	0.0542	402.4	7.242	15.28	7.23	1.59
	39.44	32.37	66.89	-0.00	0.0602	10.45	459.7	396.76	0.0546	404.8	7.287	15.37	7.32	1.59
	40.44	32.34	66.87	0.00	0.0601	10.41	458.1	395.42	0.0544	407.1	7.328	15.46	7.41	1.59
	41.45	32.35	66.86	0.00	0.0602	10.46	460.1	397.20	0.0546	405.0	7.289	15.38	7.33	1.59
	42.45	32.37	66.87	0.00	0.0601	10.43	459.0	396.27	0.0533	396.3	7.133	15.05	7.01	1.59
	43.43	32.39	66.92	0.00	0.0602	10.43	459.0	396.01	0.0529	393.8	7.088	14.95	6.92	1.59
	44.45	32.36	66.87	0.00	0.0600	10.41	458.1	395.48	0.0553	408.8	7.359	15.53	7.47	1.59
	45.44	32.36	66.89	0.00	0.0599	10.37	456.5	393.94	0.0546	407.2	7.329	15.46	7.41	1.59
	46.44	32.34	66.87	0.00	0.0598	10.35	455.4	393.09	0.0551	410.8	7.394	15.60	7.54	1.59
	47.44	32.39	66.87	0.00	0.0598	10.36	455.8	393.55	0.0554	416.2	7.491	15.81	7.73	1.59
	48.44	32.36	66.89	0.00	0.0599	10.39	457.0	394.42	0.0549	410.4	7.386	15.58	7.52	1.59
	49.44	32.35	66.89	0.00	0.0599	10.39	457.3	394.63	0.0545	405.9	7.307	15.41	7.36	1.59
	50.45	32.37	66.87	-0.00	0.0599	10.38	456.5	394.12	0.0541	401.6	7.230	15.26	7.21	1.59
	51.43	32.39	66.87	0.00	0.0600	10.40	457.4	394.94	0.0537	402.8	7.250	15.30	7.25	1.59
	52.45	32.41	66.88	-0.00	0.0599	10.35	455.3	393.05	0.0547	399.4	7.189	15.17	7.13	1.59
	53.45	32.39	66.89	0.00	0.0599	10.38	456.6	394.05	0.0548	408.2	7.348	15.50	7.45	1.59
	54.43	32.41	66.89	0.00	0.0599	10.39	457.3	394.71	0.0553	416.1	7.489	15.80	7.73	1.59
	55.44	32.38	66.87	0.00	0.0596	10.35	455.2	393.03	0.0542	407.5	7.334	15.48	7.42	1.59
	56.47	32.35	66.87	-0.00	0.0597	10.31	453.9	391.80	0.0539	399.0	7.182	15.16	7.11	1.59
	57.44	32.38	66.89	0.00	0.0600	10.40	457.7	394.98	0.0537	396.3	7.134	15.05	7.01	1.59
	58.44	32.42	66.89	0.00	0.0599	10.38	456.7	394.22	0.0548	410.1	7.381	15.57	7.51	1.59
	59.47	32.36	66.89	-0.00	0.0598	10.35	455.2	392.84	0.0544	402.2	7.239	15.27	7.23	1.59
	60.45	32.42	66.89	-0.00	0.0600	10.38	456.6	394.12	0.0539	401.8	7.232	15.26	7.22	1.59
	61.45	32.43	66.87	-0.00	0.0598	10.37	456.5	394.15	0.0543	404.2	7.276	15.36	7.30	1.59
	62.43	32.38	66.89	0.00	0.0597	10.34	455.0	392.65	0.0533	397.4	7.154	15.09	7.06	1.59
	63.45	32.38	66.89	0.00	0.0600	10.39	457.0	394.40	0.0535	393.9	7.091	14.96	6.93	1.59
	64.44	32.42	66.86	-0.00	0.0600	10.40	457.6	395.11	0.0540	399.3	7.188	15.17	7.13	1.59
	65.44	32.40	66.87	0.00	0.0600	10.39	457.1	394.62	0.0537	398.0	7.164	15.12	7.08	1.59
	66.44	32.40	66.87	0.00	0.0599	10.40	457.4	394.94	0.0534	394.2	7.095	14.98	6.94	1.59
	67.44	32.40	66.84	0.00	0.0600	10.41	457.9	395.48	0.0532	392.9	7.072	14.93	6.89	1.59
	68.45	32.43	66.87	-0.00	0.0601	10.41	458.1	395.54	0.0539	399.1	7.184	15.16	7.12	1.59
	69.44	32.40	66.89	0.00	0.0599	10.38	456.9	394.35	0.0539	400.4	7.208	15.21	7.17	1.59
	70.43	32.40	66.87	0.00	0.0600	10.41	457.9	395.36	0.0529	390.9	7.036	14.85	6.81	1.59
	71.45	32.44	66.87	0.00	0.0599	10.37	456.3	394.02	0.0529	389.2	7.005	14.79	6.75	1.59
	72.45	32.42	66.89	0.00	0.0602	10.42	458.7	395.92	0.0524	382.8	6.891	14.54	6.51	1.59
	73.46	32.40	66.89	-0.00	0.0600	10.41	457.8	395.17	0.0537	397.5	7.156	15.10	7.06	1.59
	74.44	32.41	66.85	-0.00	0.0599	10.39	457.0	394.69	0.0539	398.1	7.165	15.13	7.08	1.59
	75.44	32.42	66.87	0.00	0.0599	10.38	456.7	394.32	0.0538	399.3	7.188	15.17	7.13	1.59
	76.46	32.45	66.87	-0.00	0.0597	10.35	455.6	393.42	0.0545	405.0	7.290	15.39	7.33	1.59
	77.44	32.44	66.87	0.00	0.0595	10.30	453.4	391.51	0.0576	433.9	7.811	16.49	8.35	1.59
	78.44	32.40	66.89	-0.00	0.0595	10.27	452.1	390.18	0.0550	414.0	7.452	15.72	7.65	1.59
	79.44	32.42	66.89	0.00	0.0597	10.33	454.6	392.40	0.0555	415.6	7.481	15.78	7.71	1.59
	80.45	32.47	66.87	0.00	0.0596	10.33	454.4	392.46	0.0559	420.8	7.575	15.99	7.90	1.59
	81.43	32.44	66.89	0.00	0.0596	10.27	451.8	389.98	0.0557	416.8	7.502	15.83	7.75	1.59
	82.43	32.44	66.84	0.00	0.0595	10.27	452.1	390.53	0.0558	422.5	7.605	16.06	7.95	1.59
	83.44	32.44	66.87	0.00	0.0595	10.31	453.7	391.79	0.0553	414.8	7.467	15.76	7.68	1.59
	84.44	32.49	66.89	-0.00	0.0595	10.28	452.5	390.69	0.0556	417.6	7.516	15.86	7.78	1.59
	85.44	32.44	66.87	-0.00	0.0593	10.26	451.3	389.75	0.0550	411.5	7.407	15.64	7.57	1.59
	86.44	32.43	66.87	0.00	0.0596	10.30	453.3	391.41	0.0559	419.5	7.550	15.94	7.85	1.59
	87.44	32.44	66.87	0.00	0.0596	10.29	452.6	390.85	0.0563	424.1	7.634	16.11	8.01	1.59
	88.45	32.47	66.89	-0.00	0.0599	10.36	455.8	393.51	0.0541	404.3	7.277	15.36	7.31	1.59
	89.44	32.45	66.89	0.00	0.0596	10.34	454.9	392.69	0.0557	407.1	7.327	15.46	7.41	1.59
	90.43	32.48	66.87	0.00	0.0596	10.31	453.6	391.72	0.0559	414.5	7.461	15.75	7.67	1.59
	91.43	32.46	66.89	0.00	0.0595	10.28	452.4	390.55	0.0560	422.6	7.607	16.05	7.96	1.59
	92.43	32.52	66.87	0.00	0.0595	10.29	452.6	390.92	0.0569	430.0	7.740	16.34	8.21	1.59
	93.43	32.46	66.89	0.00	0.0595	10.28	452.3	390.45	0.0560	423.0	7.613	16.07	7.97	1.59
	94.52	32.47	66.89	-0.00	0.0596	10.29	452.9	390.96	0.0559	419.4	7.550	15.93	7.85	1.59
	95.46	32.46	66.87	-0.00	0.0595	10.31	453.4	391.58	0.0566	427.6	7.697	16.25	8.13	1.59
	96.44	32.45	66.89	0.00	0.0594	10.25	450.8	389.17	0.0569	429.6	7.733	16.32	8.20	1.59
	97.45	32.51	66.92	0.00	0.0594	10.27	451.8	389.91	0.0567	429.2	7.726	16.30	8.19	1.59
	98.44	32.50	66.87	0.00	0.0594	10.26	451.6	390.02	0.0570	431.4	7.766	16.40	8.26	1.59
	99.45	32.46	66.87	-0.00	0.0592	10.22	449.8	388.45	0.0570	432.1	7.778	16.42	8.28	1.59
	100.43	32.45	66.87	0.00	0.0591	10.23	450.1	388.67	0.0574	439.7	7.914	16.71	8.54	1.59
	101.51	32.46	66.87	-0.00	0.0597	10.31	453.4	391.58	0.0547	415.7	7.483	15.80	7.72	1.59
	102.46	32.46	66.87	0.00	0.0594	10.29	452.8	391.07	0.0563	417.6	7.517	15.87	7.78	1.59
	103.44	32.48	66.89	0.00	0.0594	10.26	451.3	389.60	0.0572	436.3	7.854	16.58	8.43	1.59
	104.44	32.49	66.87	0.00	0.0597	10.31	453.6	391.76	0.0549	419.5	7.551	15.94	7.85	1.59
	105.46	32.48	66.87	0.00	0.0598	10.36	455.7	393.53	0.0543	399.5	7.191	15.18	7.13	1.59
	106.45	32.48	66.89	0.00	0.0595	10.28	452.5	390.66	0.0562	420.2	7.563	15.96	7.87	1.59
	107.44	32.48	66.89	0.00	0.0595	10.28	452.1	390.32	0.0561	427.6	7.697	16.24	8.13	1.59
	108.45	32.51	66.89	0.00	0.0595	10.29	452.7	390.86	0.0562	423.4	7.621	16.09	7.99	1.59
	109.45	32.53	66.89	0.00	0.0593	10.27	452.0	390.24	0.0572	430.5	7.748	16.35	8.23	1.59
	110.43	32.53	66.87	0.00	0.0594	10.28	452.3	390.68	0.0570	429.6	7.732	16.33	8.20	1.59
	111.46	32.50	66.87	0.00	0.0593	10.24	450.4	388.98	0.0571	435.7	7.842	16.56	8.41	1.59
	112.44	32.50	66.89	-0.00	0.0593	10.23	450.3	388.76	0.0572	433.2	7.798	16.46	8.33	1.59
	113.43	32.50	66.91	0.00	0.0593	10.24	450.4	388.77	0.0569	433.1	7.795	16.45	8.32	1.59
	114.43	32.53	66.89	0.00	0.0593	10.24	450.5	388.94	0.0568	429.9	7.737	16.33	8.21	1.59
	115.44	32.52	66.89	0.00	0.0593	10.24	450.5	388.98	0.0571	433.9	7.810	16.49	8.35	1.59
	116.42	32.55	66.86	0.00	0.0590	10.20	448.7	387.65	0.0570	433.0	7.794	16.46	8.32	1.59
	117.44	32.52	66.92	-0.00	0.0590	10.17	447.5	386.29	0.0571	433.0	7.794	16.45	8.32	1.59
	118.45	32.55	66.89	0.00	0.0591	10.22	449.6	388.26	0.0573	437.3	7.871	16.61	8.47	1.59
	119.45	32.52	66.92	0.00	0.0593	10.22	449.9	388.29	0.0576	437.6	7.877	16.62	8.47	1.59
