Jul 28 2015 at 14:18:18
Frequency: 1.00Hz.
CO2
Zero:  Value:0.95  Date:18 Mar 2005	 at 07:22:33	
Span:  Value:1.00  Date:18 Mar 2005	 at 07:25:09	
H2O
Zero:  Value:0.71  Date:18 Mar 2005	 at 07:52:31	
Span:  Value:0.99  Date:18 Mar 2005	 at 11:44:01	
	Relative Time	Temperature	Pressure	Aux Input	CO2 Absorptance	CO2 mmol/m3	CO2 mg/m3	CO2 umol/mol	H2O Absorptance	H2O mmol/m3	H2O g/m3	H2O mmol/mol	H2O(°C)	Cooler Voltage
	0.11	32.42	67.72	-0.00	0.0619	10.79	474.7	404.69	0.0470	329.2	5.925	12.35	4.34	1.60
	1.09	32.42	67.73	0.00	0.0618	10.77	473.9	403.98	0.0480	339.7	6.115	12.74	4.79	1.60
	2.09	32.40	67.73	0.00	0.0619	10.80	475.3	405.16	0.0489	348.2	6.267	13.06	5.14	1.60
	3.10	32.40	67.75	-0.00	0.0622	10.84	477.1	406.60	0.0487	342.7	6.168	12.85	4.91	1.60
	4.09	32.43	67.73	0.00	0.0622	10.83	476.5	406.20	0.0485	344.6	6.203	12.93	4.99	1.60
	5.10	32.40	67.73	-0.00	0.0625	10.91	480.2	409.31	0.0517	375.2	6.753	14.07	6.22	1.60
	6.08	32.38	67.73	0.00	0.0626	10.93	480.8	409.78	0.0517	373.6	6.724	14.01	6.15	1.60
	7.10	32.40	67.73	0.00	0.0624	10.89	479.3	408.61	0.0555	404.2	7.275	15.16	7.30	1.59
	8.10	32.38	67.75	0.00	0.0623	10.88	478.6	407.85	0.0539	400.9	7.217	15.03	7.18	1.60
	9.19	32.41	67.70	-0.00	0.0620	10.81	475.8	405.73	0.0572	431.1	7.759	16.18	8.25	1.60
	10.09	32.38	67.68	0.00	0.0618	10.77	474.0	404.37	0.0560	438.4	7.891	16.45	8.49	1.60
	11.11	32.38	67.70	0.00	0.0620	10.80	475.3	405.31	0.0575	447.1	8.048	16.78	8.78	1.59
	12.11	32.36	67.70	-0.00	0.0619	10.80	475.3	405.26	0.0554	421.8	7.592	15.82	7.92	1.59
	13.12	32.38	67.70	-0.00	0.0619	10.80	475.0	405.03	0.0569	422.3	7.601	15.84	7.94	1.59
	14.10	32.38	67.72	-0.00	0.0618	10.78	474.4	404.41	0.0566	417.3	7.511	15.65	7.77	1.60
	15.12	32.41	67.75	0.00	0.0618	10.75	473.1	403.11	0.0567	439.3	7.908	16.47	8.53	1.60
	16.16	32.38	67.73	0.00	0.0619	10.76	473.4	403.55	0.0552	418.8	7.538	15.71	7.82	1.60
	17.10	32.38	67.81	0.00	0.0619	10.76	473.6	403.26	0.0562	419.3	7.547	15.71	7.84	1.60
	18.10	32.43	67.75	-0.00	0.0619	10.80	475.2	405.00	0.0558	411.9	7.413	15.44	7.58	1.60
	19.11	32.38	67.70	-0.00	0.0616	10.71	471.1	401.72	0.0594	460.9	8.295	17.29	9.23	1.60
	20.09	32.38	67.70	-0.00	0.0617	10.75	472.9	403.22	0.0582	442.4	7.963	16.60	8.63	1.60
	21.09	32.38	67.75	0.00	0.0617	10.73	471.9	402.15	0.0582	449.3	8.088	16.85	8.86	1.60
	22.11	32.40	67.73	0.00	0.0617	10.72	471.6	402.02	0.0590	454.3	8.177	17.04	9.02	1.60
	23.10	32.43	67.73	0.00	0.0616	10.71	471.2	401.69	0.0600	463.0	8.333	17.37	9.30	1.60
	24.10	32.43	67.70	-0.00	0.0616	10.71	471.2	401.85	0.0585	459.1	8.264	17.23	9.18	1.59
	25.12	32.40	67.73	0.00	0.0616	10.72	471.7	402.07	0.0585	446.8	8.042	16.76	8.78	1.59
	26.18	32.42	67.70	-0.00	0.0615	10.70	471.0	401.65	0.0593	454.2	8.175	17.04	9.02	1.60
	27.11	32.43	67.72	-0.00	0.0615	10.70	470.7	401.34	0.0601	463.5	8.343	17.39	9.32	1.60
	28.11	32.40	67.73	-0.00	0.0613	10.65	468.8	399.62	0.0615	478.0	8.605	17.93	9.78	1.60
	29.11	32.40	67.73	-0.00	0.0616	10.69	470.5	401.12	0.0594	460.8	8.294	17.28	9.23	1.59
	30.09	32.40	67.73	0.00	0.0611	10.60	466.5	397.64	0.0630	503.7	9.067	18.89	10.56	1.60
	31.11	32.40	67.73	-0.00	0.0612	10.65	468.5	399.34	0.0623	484.8	8.726	18.18	9.99	1.60
	32.10	32.43	67.70	-0.00	0.0614	10.68	469.8	400.67	0.0605	468.8	8.438	17.59	9.49	1.60
	33.10	32.40	67.72	-0.00	0.0614	10.68	469.8	400.49	0.0610	474.3	8.537	17.79	9.66	1.60
	34.09	32.43	67.73	0.00	0.0613	10.66	469.2	399.98	0.0615	480.1	8.642	18.01	9.85	1.60
	35.18	32.38	67.73	0.00	0.0613	10.66	468.9	399.66	0.0618	480.6	8.651	18.02	9.86	1.59
	36.11	32.41	67.75	0.00	0.0610	10.58	465.4	396.63	0.0647	517.0	9.305	19.38	10.95	1.60
	37.17	32.36	67.72	0.00	0.0610	10.57	464.9	396.29	0.0641	519.0	9.342	19.47	11.01	1.60
	38.09	32.36	67.73	0.00	0.0610	10.59	466.0	397.21	0.0641	500.8	9.014	18.78	10.47	1.60
	39.11	32.36	67.75	0.00	0.0611	10.61	466.7	397.62	0.0630	491.1	8.840	18.41	10.18	1.60
	40.11	32.34	67.73	0.00	0.0608	10.58	465.4	396.63	0.0652	509.0	9.162	19.09	10.71	1.60
	41.11	32.32	67.73	0.00	0.0607	10.51	462.3	393.99	0.0668	535.7	9.642	20.09	11.48	1.60
	42.09	32.32	67.72	0.00	0.0609	10.55	464.3	395.72	0.0646	516.0	9.289	19.35	10.92	1.60
	43.18	32.34	67.73	-0.00	0.0608	10.53	463.2	394.76	0.0649	521.5	9.387	19.56	11.08	1.60
	44.09	32.30	67.73	0.00	0.0608	10.56	464.8	396.07	0.0647	511.9	9.214	19.19	10.80	1.60
	45.10	32.30	67.75	0.00	0.0608	10.55	464.3	395.55	0.0645	513.7	9.247	19.26	10.85	1.60
	46.10	32.32	67.70	-0.00	0.0609	10.56	464.5	396.00	0.0647	512.3	9.222	19.22	10.81	1.60
	47.10	32.32	67.73	0.00	0.0608	10.53	463.4	394.94	0.0647	516.4	9.295	19.36	10.93	1.60
	48.09	32.34	67.73	-0.00	0.0608	10.56	464.5	395.83	0.0642	506.7	9.120	19.00	10.65	1.60
	49.11	32.35	67.70	0.00	0.0609	10.56	464.6	396.15	0.0637	504.1	9.074	18.91	10.57	1.60
	50.17	32.30	67.73	0.00	0.0608	10.55	464.4	395.71	0.0642	504.2	9.076	18.91	10.57	1.60
	51.09	32.31	67.73	0.00	0.0609	10.56	464.6	395.91	0.0635	501.6	9.029	18.81	10.49	1.60
	52.17	32.30	67.70	0.00	0.0608	10.55	464.0	395.58	0.0641	507.2	9.129	19.02	10.66	1.60
	53.09	32.32	67.75	0.00	0.0607	10.53	463.4	394.82	0.0650	514.5	9.262	19.29	10.88	1.60
	54.10	32.35	67.73	-0.00	0.0608	10.53	463.5	395.01	0.0644	513.3	9.240	19.25	10.84	1.60
	55.08	32.27	67.72	0.00	0.0608	10.55	464.1	395.44	0.0640	507.8	9.141	19.04	10.68	1.60
	56.10	32.27	67.73	0.00	0.0608	10.54	463.7	395.09	0.0647	517.7	9.319	19.41	10.97	1.60
	57.11	32.30	67.73	-0.00	0.0608	10.54	463.7	395.20	0.0646	513.7	9.247	19.26	10.85	1.60
	58.11	32.27	67.70	0.00	0.0608	10.54	463.6	395.19	0.0650	519.2	9.345	19.47	11.01	1.60
	59.09	32.30	67.70	0.00	0.0608	10.53	463.4	395.00	0.0647	515.2	9.274	19.32	10.90	1.60
	60.09	32.30	67.75	0.00	0.0607	10.52	462.8	394.28	0.0648	516.7	9.301	19.37	10.94	1.60
	61.09	32.32	67.73	0.00	0.0607	10.51	462.5	394.18	0.0650	520.1	9.362	19.50	11.04	1.60
	62.09	32.35	67.73	0.00	0.0605	10.51	462.4	394.07	0.0668	518.9	9.340	19.46	11.00	1.60
	63.09	32.37	67.75	0.00	0.0605	10.53	463.2	394.71	0.0666	522.3	9.401	19.58	11.10	1.60
	64.10	32.36	67.75	0.00	0.0606	10.51	462.3	393.91	0.0661	526.5	9.478	19.74	11.23	1.60
	65.10	32.34	67.70	0.00	0.0606	10.49	461.7	393.62	0.0663	533.9	9.610	20.03	11.43	1.60
	66.10	32.32	67.72	0.00	0.0605	10.47	460.7	392.63	0.0671	542.1	9.757	20.33	11.66	1.60
	67.10	32.37	67.73	0.00	0.0605	10.50	461.8	393.62	0.0672	536.2	9.652	20.11	11.50	1.60
	68.11	32.32	67.73	-0.00	0.0606	10.48	461.3	393.16	0.0664	536.1	9.649	20.10	11.49	1.60
	69.11	32.32	67.70	-0.00	0.0606	10.50	461.9	393.81	0.0667	537.3	9.671	20.15	11.53	1.60
	70.11	32.34	67.73	-0.00	0.0605	10.47	460.9	392.81	0.0670	535.7	9.642	20.09	11.48	1.60
	71.11	32.34	67.73	-0.00	0.0605	10.47	460.5	392.45	0.0678	552.0	9.936	20.70	11.94	1.60
	72.10	32.34	67.70	-0.00	0.0605	10.47	460.6	392.76	0.0675	550.5	9.909	20.65	11.90	1.60
	73.10	32.34	67.70	-0.00	0.0605	10.46	460.4	392.51	0.0671	546.5	9.838	20.50	11.79	1.60
	74.08	32.36	67.70	0.00	0.0605	10.44	459.4	391.69	0.0680	559.4	10.069	20.99	12.14	1.60
	75.10	32.36	67.72	0.00	0.0605	10.47	460.5	392.50	0.0670	546.8	9.842	20.51	11.80	1.60
	76.10	32.39	67.72	0.00	0.0605	10.47	460.7	392.73	0.0674	546.2	9.832	20.49	11.78	1.60
	77.09	32.35	67.72	0.00	0.0604	10.45	459.7	391.80	0.0675	548.8	9.878	20.58	11.85	1.60
	78.11	32.36	67.70	0.00	0.0605	10.48	461.0	393.06	0.0670	543.1	9.776	20.38	11.69	1.60
	79.09	32.36	67.75	0.00	0.0605	10.46	460.4	392.32	0.0659	531.8	9.572	19.94	11.38	1.60
	80.09	32.39	67.72	0.00	0.0604	10.47	460.8	392.81	0.0669	537.5	9.675	20.16	11.54	1.60
	81.11	32.34	67.70	-0.00	0.0605	10.46	460.4	392.54	0.0668	542.6	9.767	20.35	11.68	1.60
	82.10	32.39	67.72	-0.00	0.0603	10.45	459.6	391.83	0.0672	544.7	9.804	20.43	11.74	1.60
	83.10	32.36	67.72	-0.00	0.0604	10.46	460.1	392.21	0.0677	548.2	9.867	20.56	11.83	1.60
	84.10	32.39	67.72	-0.00	0.0604	10.46	460.3	392.37	0.0672	545.6	9.821	20.47	11.77	1.60
	85.08	32.34	67.72	0.00	0.0605	10.46	460.2	392.20	0.0673	545.7	9.823	20.47	11.77	1.60
	86.10	32.36	67.73	0.00	0.0602	10.41	458.0	390.37	0.0694	566.3	10.193	21.24	12.33	1.60
	87.11	32.34	67.70	-0.00	0.0604	10.44	459.3	391.64	0.0680	555.8	10.004	20.85	12.04	1.60
	88.09	32.36	67.72	0.00	0.0604	10.45	459.9	392.04	0.0676	551.6	9.929	20.69	11.93	1.60
	89.08	32.39	67.73	0.00	0.0603	10.43	459.1	391.34	0.0685	560.3	10.086	21.02	12.17	1.60
	90.09	32.36	67.70	0.00	0.0604	10.44	459.3	391.64	0.0677	555.0	9.991	20.83	12.02	1.60
	91.12	32.40	67.72	-0.00	0.0604	10.47	460.6	392.68	0.0676	541.0	9.739	20.29	11.64	1.60
	92.10	32.38	67.70	0.00	0.0603	10.42	458.6	391.06	0.0682	557.5	10.035	20.92	12.09	1.60
	93.10	32.41	67.70	0.00	0.0604	10.45	459.8	392.14	0.0677	551.5	9.927	20.69	11.93	1.60
	94.18	32.35	67.72	-0.00	0.0603	10.43	459.1	391.31	0.0676	550.0	9.900	20.63	11.89	1.60
	95.10	32.38	67.70	0.00	0.0604	10.44	459.4	391.78	0.0678	553.2	9.957	20.76	11.97	1.60
	96.10	32.37	67.70	0.00	0.0603	10.44	459.2	391.56	0.0685	554.2	9.975	20.79	12.00	1.60
	97.11	32.36	67.73	-0.00	0.0603	10.43	459.0	391.20	0.0678	557.7	10.039	20.92	12.10	1.60
	98.11	32.38	67.70	-0.00	0.0603	10.42	458.5	390.95	0.0690	566.5	10.196	21.25	12.33	1.60
	99.09	32.41	67.73	0.00	0.0603	10.43	458.9	391.21	0.0681	558.4	10.051	20.94	12.12	1.60
	100.11	32.38	67.72	-0.00	0.0603	10.44	459.2	391.45	0.0677	553.2	9.958	20.75	11.97	1.60
	101.10	32.38	67.73	-0.00	0.0604	10.43	458.8	391.06	0.0679	555.4	9.998	20.83	12.03	1.60
	102.09	32.38	67.70	0.00	0.0603	10.44	459.3	391.61	0.0679	554.1	9.974	20.79	12.00	1.60
	103.10	32.41	67.73	0.00	0.0603	10.43	458.7	391.05	0.0685	562.5	10.126	21.10	12.23	1.60
	104.10	32.33	67.70	0.00	0.0603	10.42	458.5	390.89	0.0683	558.5	10.054	20.95	12.12	1.60
	105.11	32.38	67.72	-0.00	0.0601	10.37	456.3	388.96	0.0698	580.4	10.448	21.77	12.70	1.60
	106.11	32.38	67.72	-0.00	0.0603	10.43	458.9	391.20	0.0686	561.0	10.099	21.04	12.19	1.60
	107.11	32.41	67.73	0.00	0.0603	10.43	459.0	391.24	0.0686	558.9	10.060	20.96	12.13	1.60
	108.11	32.43	67.73	-0.00	0.0602	10.40	457.5	390.02	0.0695	576.2	10.372	21.61	12.60	1.60
	109.11	32.38	67.70	-0.00	0.0603	10.42	458.6	391.06	0.0692	568.0	10.225	21.31	12.38	1.60
	110.11	32.36	67.75	-0.00	0.0601	10.39	457.3	389.61	0.0708	584.5	10.522	21.91	12.81	1.60
	111.18	32.39	67.72	-0.00	0.0602	10.39	457.2	389.76	0.0701	584.0	10.511	21.90	12.80	1.60
	112.09	32.36	67.70	0.00	0.0602	10.41	457.8	390.38	0.0698	572.1	10.298	21.46	12.48	1.60
	113.10	32.37	67.75	0.00	0.0603	10.42	458.4	390.60	0.0691	573.6	10.325	21.50	12.52	1.60
	114.10	32.35	67.70	0.00	0.0603	10.44	459.4	391.75	0.0686	561.5	10.107	21.07	12.20	1.60
	115.10	32.36	67.70	0.00	0.0603	10.43	458.7	391.10	0.0692	569.8	10.257	21.38	12.42	1.60
	116.08	32.40	67.75	0.00	0.0603	10.43	458.8	391.03	0.0696	573.3	10.320	21.50	12.52	1.60
	117.11	32.40	67.70	-0.00	0.0603	10.44	459.3	391.68	0.0698	574.5	10.340	21.56	12.55	1.60
	118.11	32.43	67.70	-0.00	0.0604	10.43	459.1	391.58	0.0694	571.2	10.281	21.43	12.46	1.60
	119.11	32.42	67.72	-0.00	0.0604	10.45	459.8	391.98	0.0687	568.2	10.227	21.31	12.38	1.60
	120.11	32.47	67.70	0.00	0.0603	10.44	459.5	391.95	0.0694	571.5	10.287	21.45	12.47	1.60
	121.09	32.49	67.70	0.00	0.0603	10.43	458.9	391.42	0.0696	575.1	10.352	21.59	12.57	1.60
	122.10	32.51	67.70	-0.00	0.0604	10.44	459.5	391.96	0.0693	572.8	10.310	21.50	12.51	1.60
	123.10	32.52	67.70	-0.00	0.0604	10.45	459.9	392.32	0.0686	562.2	10.119	21.10	12.23	1.60
	124.10	32.53	67.70	-0.00	0.0603	10.44	459.2	391.72	0.0697	569.4	10.250	21.37	12.42	1.60
	125.11	32.52	67.70	-0.00	0.0602	10.41	457.9	390.62	0.0701	582.9	10.492	21.88	12.78	1.60
	126.09	32.50	67.72	-0.00	0.0602	10.41	458.0	390.58	0.0703	581.1	10.460	21.81	12.73	1.60
	127.11	32.53	67.70	0.00	0.0602	10.41	457.8	390.58	0.0707	589.4	10.610	22.13	12.95	1.60
	128.09	32.53	67.65	0.00	0.0602	10.41	458.0	391.03	0.0698	578.9	10.421	21.75	12.67	1.60
	129.09	32.50	67.72	0.00	0.0602	10.40	457.8	390.38	0.0699	579.9	10.439	21.76	12.70	1.60
	130.09	32.55	67.75	0.00	0.0602	10.41	458.0	390.48	0.0695	571.2	10.282	21.43	12.47	1.60
