Jul 28 2015 at 15:43:35
Frequency: 1.00Hz.
CO2
Zero:  Value:0.95  Date:18 Mar 2005	 at 07:22:33	
Span:  Value:1.00  Date:18 Mar 2005	 at 07:25:09	
H2O
Zero:  Value:0.71  Date:18 Mar 2005	 at 07:52:31	
Span:  Value:0.99  Date:18 Mar 2005	 at 11:44:01	
	Relative Time	Temperature	Pressure	Aux Input	CO2 Absorptance	CO2 mmol/m3	CO2 mg/m3	CO2 umol/mol	H2O Absorptance	H2O mmol/m3	H2O g/m3	H2O mmol/mol	H2O(°C)	Cooler Voltage
	0.59	31.52	66.87	0.00	0.0611	10.66	469.1	403.85	0.0458	320.8	5.774	12.15	3.93	1.60
	1.58	31.47	66.87	0.00	0.0610	10.67	469.3	403.99	0.0468	318.9	5.740	12.08	3.84	1.61
	2.59	31.49	66.92	0.00	0.0614	10.68	469.8	404.17	0.0459	323.7	5.827	12.25	4.06	1.61
	3.60	31.43	66.89	-0.00	0.0620	10.85	477.6	410.88	0.0452	314.2	5.656	11.90	3.63	1.60
	4.59	31.45	66.87	-0.00	0.0630	11.03	485.5	417.87	0.0437	300.7	5.413	11.39	3.01	1.60
	5.60	31.47	66.89	-0.00	0.0627	11.08	487.4	419.34	0.0444	303.5	5.463	11.49	3.14	1.60
	6.58	31.47	66.87	0.00	0.0621	10.87	478.1	411.56	0.0451	313.1	5.636	11.86	3.58	1.60
	7.58	31.49	66.89	-0.00	0.0622	10.87	478.5	411.72	0.0444	307.5	5.535	11.64	3.33	1.60
	8.66	31.49	66.90	0.00	0.0620	10.85	477.4	410.80	0.0454	314.5	5.660	11.91	3.64	1.61
	9.59	31.49	66.92	-0.00	0.0616	10.77	473.7	407.47	0.0483	332.8	5.990	12.59	4.45	1.60
	10.59	31.54	66.92	0.00	0.0617	10.77	474.0	407.81	0.0484	344.6	6.202	13.04	4.95	1.60
	11.67	31.47	66.87	0.00	0.0617	10.80	475.0	408.88	0.0466	331.5	5.968	12.56	4.40	1.60
	12.59	31.47	66.89	0.00	0.0618	10.78	474.2	408.03	0.0477	342.4	6.164	12.96	4.86	1.60
	13.59	31.49	66.90	0.00	0.0618	10.80	475.4	409.07	0.0471	334.7	6.024	12.67	4.53	1.60
	14.60	31.47	66.90	0.00	0.0619	10.83	476.3	409.84	0.0457	320.8	5.775	12.15	3.93	1.60
	15.59	31.51	66.90	0.00	0.0618	10.81	475.7	409.39	0.0449	311.0	5.598	11.78	3.49	1.60
	16.58	31.48	66.89	0.00	0.0619	10.83	476.4	409.96	0.0451	311.7	5.610	11.80	3.52	1.60
	17.61	31.48	66.89	-0.00	0.0618	10.81	475.5	409.19	0.0463	322.4	5.804	12.21	4.00	1.60
	18.60	31.49	66.90	0.00	0.0619	10.82	476.2	409.74	0.0457	322.1	5.797	12.19	3.98	1.60
	19.59	31.49	66.87	-0.00	0.0619	10.81	475.8	409.62	0.0449	311.6	5.609	11.80	3.52	1.60
	20.61	31.49	66.89	-0.00	0.0618	10.82	476.2	409.76	0.0454	313.9	5.651	11.89	3.62	1.60
	21.59	31.49	66.89	0.00	0.0619	10.83	476.3	409.88	0.0458	320.5	5.769	12.13	3.91	1.60
	22.57	31.49	66.89	0.00	0.0616	10.74	472.5	406.56	0.0471	335.5	6.039	12.70	4.57	1.60
	23.59	31.49	66.87	0.00	0.0618	10.81	475.7	409.47	0.0472	329.6	5.933	12.48	4.31	1.60
	24.59	31.51	66.92	0.00	0.0618	10.81	475.6	409.13	0.0466	327.8	5.901	12.41	4.24	1.60
	25.58	31.49	66.87	0.00	0.0618	10.79	474.9	408.78	0.0466	326.6	5.878	12.37	4.18	1.60
	26.60	31.46	66.89	0.00	0.0617	10.80	475.0	408.71	0.0485	345.4	6.217	13.08	4.98	1.61
	27.61	31.47	66.92	-0.00	0.0616	10.77	473.7	407.46	0.0492	348.2	6.268	13.18	5.10	1.60
	28.59	31.47	66.89	0.00	0.0617	10.76	473.4	407.33	0.0494	354.6	6.384	13.43	5.36	1.60
	29.59	31.46	66.90	-0.00	0.0616	10.76	473.4	407.33	0.0480	343.1	6.176	12.99	4.89	1.60
	30.58	31.46	66.90	0.00	0.0615	10.75	473.1	407.08	0.0481	344.5	6.201	13.04	4.95	1.60
	31.59	31.49	66.87	0.00	0.0615	10.75	472.9	407.05	0.0488	346.9	6.244	13.14	5.04	1.60
	32.59	31.47	66.89	-0.00	0.0615	10.75	472.8	406.84	0.0481	342.4	6.164	12.96	4.86	1.60
	33.57	31.48	66.87	0.00	0.0617	10.76	473.5	407.62	0.0479	340.2	6.124	12.88	4.77	1.60
	34.60	31.48	66.87	-0.00	0.0615	10.73	472.2	406.49	0.0487	345.5	6.220	13.09	4.99	1.60
	35.60	31.47	66.89	0.00	0.0613	10.71	471.2	405.45	0.0505	364.3	6.558	13.79	5.75	1.60
	36.60	31.47	66.92	-0.00	0.0614	10.71	471.2	405.29	0.0488	352.4	6.344	13.34	5.27	1.61
	37.58	31.47	66.89	0.00	0.0616	10.76	473.6	407.54	0.0486	346.6	6.238	13.12	5.03	1.60
	38.58	31.46	66.89	0.00	0.0616	10.76	473.4	407.29	0.0497	356.4	6.416	13.49	5.43	1.60
	39.59	31.51	66.89	-0.00	0.0613	10.70	471.0	405.33	0.0506	365.7	6.582	13.85	5.81	1.60
	40.61	31.49	66.89	-0.00	0.0615	10.72	471.8	406.04	0.0504	367.9	6.622	13.93	5.89	1.60
	41.59	31.54	66.89	0.00	0.0612	10.68	470.0	404.52	0.0516	378.4	6.812	14.33	6.30	1.60
	42.59	31.49	66.90	0.00	0.0615	10.76	473.6	407.51	0.0498	360.2	6.484	13.64	5.59	1.61
	43.60	31.53	66.87	-0.00	0.0616	10.76	473.6	407.75	0.0499	361.9	6.513	13.71	5.65	1.61
	44.60	31.51	66.87	-0.00	0.0615	10.74	472.6	406.83	0.0512	370.9	6.676	14.05	6.01	1.60
	45.66	31.52	66.87	-0.00	0.0616	10.75	472.9	407.16	0.0519	377.0	6.786	14.28	6.25	1.60
	46.58	31.52	66.89	0.00	0.0613	10.69	470.4	404.81	0.0540	400.4	7.206	15.16	7.12	1.60
	47.60	31.53	66.89	-0.00	0.0614	10.71	471.4	405.65	0.0533	390.6	7.030	14.79	6.76	1.60
	48.61	31.50	66.87	-0.00	0.0613	10.70	470.9	405.35	0.0529	389.1	7.003	14.74	6.70	1.61
	49.59	31.56	66.87	0.00	0.0614	10.71	471.1	405.66	0.0523	386.2	6.952	14.63	6.60	1.60
	50.59	31.56	66.85	0.00	0.0613	10.69	470.5	405.26	0.0532	394.7	7.105	14.96	6.92	1.60
	51.57	31.51	66.87	0.00	0.0614	10.71	471.4	405.86	0.0544	408.5	7.354	15.48	7.42	1.60
	52.59	31.53	66.90	0.00	0.0613	10.70	470.8	405.17	0.0542	401.5	7.228	15.20	7.16	1.60
	53.59	31.49	66.87	-0.00	0.0612	10.70	470.7	405.16	0.0534	390.2	7.024	14.78	6.74	1.61
	54.60	31.51	66.87	-0.00	0.0614	10.71	471.2	405.59	0.0510	376.8	6.782	14.27	6.24	1.61
	55.60	31.49	66.87	-0.00	0.0612	10.68	469.8	404.38	0.0530	389.0	7.002	14.73	6.70	1.60
	56.60	31.49	66.87	-0.00	0.0612	10.68	469.7	404.36	0.0535	390.9	7.037	14.81	6.77	1.60
	57.58	31.49	66.89	0.00	0.0612	10.67	469.3	403.83	0.0528	391.1	7.040	14.81	6.78	1.60
	58.58	31.49	66.87	0.00	0.0612	10.67	469.4	404.11	0.0527	382.1	6.878	14.47	6.44	1.60
	59.59	31.48	66.86	0.00	0.0612	10.67	469.3	404.01	0.0538	399.4	7.190	15.13	7.08	1.60
	60.59	31.48	66.87	0.00	0.0610	10.65	468.5	403.27	0.0526	393.3	7.079	14.90	6.86	1.61
	61.59	31.56	66.92	-0.00	0.0610	10.62	467.3	402.10	0.0538	389.5	7.012	14.75	6.72	1.60
	62.59	31.51	66.89	0.00	0.0612	10.68	469.7	404.24	0.0527	389.0	7.002	14.73	6.70	1.60
	63.59	31.51	66.89	-0.00	0.0611	10.65	468.6	403.35	0.0543	400.3	7.205	15.16	7.12	1.60
	64.57	31.51	66.87	0.00	0.0612	10.67	469.3	403.99	0.0539	400.6	7.211	15.18	7.13	1.60
	65.58	31.51	66.87	0.00	0.0611	10.65	468.5	403.33	0.0551	406.3	7.313	15.39	7.34	1.61
	66.60	31.50	66.89	0.00	0.0612	10.68	469.8	404.29	0.0532	390.1	7.022	14.77	6.74	1.61
	67.58	31.50	66.89	0.00	0.0610	10.64	468.2	402.94	0.0556	418.1	7.526	15.83	7.76	1.60
	68.59	31.51	66.87	-0.00	0.0613	10.68	470.0	404.63	0.0534	397.2	7.149	15.05	7.00	1.60
	69.61	31.53	66.87	-0.00	0.0612	10.68	469.9	404.53	0.0538	399.6	7.193	15.14	7.09	1.60
	70.59	31.51	66.89	-0.00	0.0611	10.66	469.1	403.71	0.0553	406.0	7.308	15.37	7.32	1.60
	71.57	31.51	66.87	0.00	0.0612	10.68	469.8	404.41	0.0535	396.6	7.139	15.02	6.98	1.61
	72.57	31.49	66.89	0.00	0.0612	10.66	469.2	403.79	0.0536	399.2	7.186	15.11	7.08	1.61
	73.59	31.51	66.87	0.00	0.0611	10.66	469.0	403.72	0.0558	414.4	7.458	15.70	7.62	1.60
	74.57	31.51	66.87	0.00	0.0610	10.62	467.2	402.17	0.0554	419.1	7.543	15.87	7.79	1.60
	75.60	31.52	66.92	0.00	0.0610	10.64	468.1	402.69	0.0554	409.3	7.367	15.49	7.44	1.60
	76.60	31.50	66.89	0.00	0.0609	10.61	466.7	401.62	0.0567	420.5	7.569	15.92	7.84	1.60
	77.59	31.51	66.87	0.00	0.0610	10.61	466.8	401.87	0.0549	416.5	7.498	15.78	7.70	1.60
	78.58	31.56	66.89	0.00	0.0609	10.62	467.3	402.21	0.0567	424.4	7.638	16.07	7.98	1.61
	79.59	31.50	66.89	0.00	0.0607	10.58	465.5	400.57	0.0575	437.1	7.868	16.55	8.41	1.60
	80.59	31.53	66.86	0.00	0.0608	10.56	464.6	400.06	0.0557	413.0	7.434	15.65	7.58	1.60
	81.59	31.54	66.92	0.00	0.0609	10.60	466.4	401.23	0.0569	426.1	7.670	16.13	8.04	1.60
	82.59	31.54	66.89	0.00	0.0609	10.58	465.4	400.59	0.0552	415.3	7.475	15.73	7.66	1.60
	83.59	31.53	66.87	0.00	0.0607	10.59	466.1	401.30	0.0577	426.1	7.671	16.14	8.04	1.61
	84.58	31.53	66.92	0.00	0.0607	10.55	464.2	399.37	0.0578	447.0	8.046	16.92	8.74	1.60
	85.60	31.49	66.87	-0.00	0.0607	10.57	465.1	400.37	0.0577	437.6	7.877	16.57	8.42	1.60
	86.58	31.49	66.92	0.00	0.0610	10.62	467.1	401.79	0.0558	421.2	7.581	15.94	7.86	1.60
	87.67	31.49	66.87	-0.00	0.0609	10.62	467.5	402.39	0.0564	420.3	7.565	15.92	7.83	1.60
	88.58	31.51	66.89	0.00	0.0607	10.56	464.8	399.99	0.0575	439.0	7.903	16.62	8.47	1.60
	89.59	31.54	66.87	0.00	0.0608	10.58	465.3	400.64	0.0572	434.1	7.814	16.45	8.31	1.61
	90.59	31.51	66.89	0.00	0.0608	10.57	465.1	400.21	0.0577	439.1	7.903	16.63	8.47	1.61
	91.59	31.51	66.87	0.00	0.0608	10.56	464.8	400.17	0.0585	448.9	8.081	17.00	8.80	1.60
	92.59	31.53	66.90	0.00	0.0608	10.56	464.6	399.78	0.0585	451.0	8.118	17.08	8.87	1.61
	93.58	31.54	66.89	-0.00	0.0606	10.53	463.3	398.69	0.0598	458.7	8.257	17.37	9.12	1.60
	94.58	31.51	66.89	0.00	0.0608	10.58	465.4	400.49	0.0588	451.7	8.131	17.10	8.89	1.60
	95.60	31.50	66.89	0.00	0.0607	10.57	464.9	400.06	0.0597	458.4	8.251	17.36	9.11	1.61
	96.58	31.54	66.92	0.00	0.0610	10.61	466.6	401.48	0.0587	449.7	8.095	17.02	8.83	1.60
	97.58	31.49	66.87	0.00	0.0606	10.53	463.5	398.99	0.0603	469.7	8.455	17.79	9.47	1.60
	98.59	31.49	66.87	-0.00	0.0607	10.58	465.4	400.58	0.0588	453.1	8.156	17.16	8.94	1.60
	99.59	31.47	66.89	-0.00	0.0607	10.56	464.5	399.66	0.0599	464.7	8.365	17.59	9.31	1.61
	100.57	31.49	66.89	0.00	0.0606	10.53	463.1	398.54	0.0604	473.9	8.530	17.94	9.60	1.61
	101.59	31.49	66.87	0.00	0.0609	10.60	466.3	401.44	0.0581	446.1	8.029	16.90	8.71	1.61
	102.59	31.49	66.89	0.00	0.0609	10.59	465.9	400.90	0.0583	444.6	8.003	16.83	8.66	1.61
	103.57	31.48	66.87	0.00	0.0607	10.59	465.8	400.95	0.0595	450.1	8.103	17.05	8.84	1.60
	104.58	31.51	66.87	0.00	0.0608	10.58	465.3	400.62	0.0588	454.7	8.184	17.22	8.99	1.61
	105.60	31.51	66.87	-0.00	0.0607	10.57	464.9	400.27	0.0580	444.4	7.999	16.83	8.65	1.61
	106.66	31.50	66.87	0.00	0.0607	10.55	464.0	399.46	0.0599	465.6	8.380	17.64	9.34	1.61
	107.59	31.51	66.90	0.00	0.0606	10.56	464.7	399.85	0.0599	452.0	8.137	17.12	8.90	1.61
	108.59	31.50	66.87	0.00	0.0603	10.48	461.0	396.89	0.0624	492.3	8.862	18.65	10.18	1.61
	109.58	31.50	66.85	0.00	0.0607	10.53	463.5	399.16	0.0593	462.1	8.318	17.51	9.23	1.60
	110.61	31.51	66.89	-0.00	0.0606	10.54	463.9	399.24	0.0598	463.8	8.348	17.56	9.29	1.61
	111.59	31.56	66.89	0.00	0.0607	10.55	464.2	399.55	0.0604	469.9	8.458	17.80	9.48	1.61
	112.66	31.51	66.87	-0.00	0.0604	10.49	461.4	397.20	0.0632	498.3	8.969	18.87	10.35	1.61
	113.60	31.53	66.87	-0.00	0.0603	10.49	461.6	397.41	0.0627	492.4	8.863	18.65	10.18	1.61
	114.60	31.51	66.89	-0.00	0.0605	10.51	462.3	397.89	0.0623	494.9	8.908	18.74	10.25	1.61
	115.58	31.50	66.87	0.00	0.0607	10.53	463.1	398.67	0.0610	481.0	8.658	18.22	9.83	1.61
	116.56	31.51	66.84	0.00	0.0607	10.56	464.8	400.27	0.0603	465.1	8.371	17.62	9.33	1.61
	117.58	31.51	66.89	0.00	0.0604	10.49	461.5	397.16	0.0619	492.4	8.863	18.65	10.18	1.61
	118.59	31.51	66.87	0.00	0.0605	10.51	462.5	398.12	0.0615	481.2	8.661	18.23	9.83	1.61
	119.59	31.51	66.87	0.00	0.0605	10.50	462.0	397.72	0.0624	495.1	8.912	18.75	10.26	1.61
	120.57	31.51	66.90	0.00	0.0603	10.48	461.0	396.69	0.0634	505.7	9.103	19.15	10.58	1.61
	121.59	31.54	66.90	0.00	0.0607	10.54	464.0	399.29	0.0608	476.5	8.578	18.04	9.69	1.61
	122.59	31.51	66.89	0.00	0.0603	10.47	460.7	396.47	0.0630	496.5	8.937	18.80	10.30	1.61
	123.60	31.53	66.89	-0.00	0.0604	10.50	461.8	397.45	0.0617	488.1	8.786	18.48	10.05	1.61
