Jul 28 2015 at 9:45:02
Frequency: 1.00Hz.
CO2
Zero:  Value:0.95  Date:18 Mar 2005	 at 07:22:33	
Span:  Value:1.00  Date:18 Mar 2005	 at 07:25:09	
H2O
Zero:  Value:0.71  Date:18 Mar 2005	 at 07:52:31	
Span:  Value:0.99  Date:18 Mar 2005	 at 11:44:01	
	Relative Time	Temperature	Pressure	Aux Input	CO2 Absorptance	CO2 mmol/m3	CO2 mg/m3	CO2 umol/mol	H2O Absorptance	H2O mmol/m3	H2O g/m3	H2O mmol/mol	H2O(°C)	Cooler Voltage
	0.39	16.53	67.65	0.00	0.0622	10.85	477.2	386.14	0.0410	274.5	4.941	9.77	1.03	1.49
	1.39	16.54	67.65	0.00	0.0621	10.86	477.7	386.57	0.0413	276.8	4.982	9.85	1.15	1.49
	2.39	16.54	67.65	0.00	0.0621	10.85	477.5	386.37	0.0413	276.7	4.981	9.85	1.14	1.49
	3.46	16.51	67.65	0.00	0.0622	10.85	477.6	386.39	0.0417	278.1	5.006	9.90	1.21	1.49
	4.42	16.54	67.63	-0.00	0.0621	10.86	477.8	386.75	0.0423	283.1	5.096	10.08	1.46	1.49
	5.41	16.53	67.65	-0.00	0.0622	10.85	477.6	386.39	0.0434	294.4	5.299	10.48	2.00	1.49
	6.40	16.54	67.63	0.00	0.0623	10.86	478.0	386.85	0.0426	290.9	5.237	10.36	1.84	1.49
	7.41	16.54	67.63	0.00	0.0622	10.87	478.5	387.28	0.0425	289.1	5.203	10.29	1.75	1.49
	8.41	16.56	67.65	0.00	0.0622	10.87	478.3	387.05	0.0432	288.4	5.192	10.27	1.72	1.49
	9.39	16.56	67.65	0.00	0.0623	10.87	478.1	386.88	0.0435	295.3	5.315	10.51	2.05	1.49
	10.40	16.56	67.65	-0.00	0.0622	10.86	477.7	386.55	0.0434	292.9	5.273	10.43	1.94	1.49
	11.40	16.56	67.65	0.00	0.0622	10.86	477.8	386.61	0.0445	304.8	5.486	10.85	2.49	1.49
	12.40	16.56	67.63	0.00	0.0622	10.85	477.5	386.48	0.0441	304.6	5.483	10.85	2.49	1.49
	13.38	16.57	67.63	0.00	0.0622	10.85	477.4	386.45	0.0458	312.7	5.629	11.14	2.86	1.49
	14.40	16.56	67.65	0.00	0.0621	10.84	477.1	386.05	0.0443	309.8	5.577	11.03	2.72	1.49
	15.38	16.57	67.65	0.00	0.0621	10.83	476.7	385.77	0.0457	316.1	5.690	11.25	3.01	1.49
	16.39	16.56	67.63	-0.00	0.0620	10.83	476.3	385.56	0.0456	314.7	5.664	11.21	2.94	1.49
	17.38	16.57	67.65	0.00	0.0620	10.82	476.1	385.31	0.0467	322.9	5.813	11.50	3.31	1.49
	18.39	16.57	67.65	0.00	0.0620	10.80	475.2	384.51	0.0474	338.0	6.083	12.03	3.96	1.49
	19.45	16.57	67.63	0.00	0.0620	10.80	475.2	384.71	0.0468	331.3	5.964	11.80	3.67	1.49
	20.39	16.56	67.65	0.00	0.0619	10.80	475.4	384.66	0.0466	325.2	5.854	11.58	3.41	1.49
	21.40	16.59	67.65	0.00	0.0620	10.79	474.9	384.32	0.0466	328.2	5.907	11.69	3.54	1.49
	22.40	16.59	67.63	0.00	0.0619	10.80	475.3	384.75	0.0467	324.0	5.831	11.54	3.36	1.49
	23.40	16.57	67.65	-0.00	0.0618	10.79	474.6	384.04	0.0465	328.2	5.908	11.69	3.54	1.49
	24.40	16.59	67.65	0.00	0.0619	10.78	474.4	383.90	0.0468	323.2	5.818	11.51	3.32	1.49
	25.41	16.57	67.65	-0.00	0.0619	10.79	474.9	384.27	0.0466	326.7	5.880	11.63	3.47	1.49
	26.39	16.59	67.65	0.00	0.0618	10.79	474.6	384.05	0.0473	331.5	5.968	11.81	3.68	1.49
	27.41	16.59	67.65	-0.00	0.0619	10.78	474.5	384.00	0.0473	333.1	5.995	11.86	3.75	1.49
	28.39	16.57	67.63	-0.00	0.0618	10.77	473.7	383.48	0.0478	334.9	6.029	11.93	3.83	1.49
	29.41	16.57	67.61	-0.00	0.0617	10.76	473.4	383.35	0.0484	342.9	6.172	12.22	4.16	1.49
	30.40	16.61	67.65	0.00	0.0616	10.74	472.6	382.50	0.0494	350.5	6.309	12.48	4.48	1.49
	31.39	16.59	67.65	0.00	0.0616	10.73	472.2	382.16	0.0496	350.5	6.309	12.48	4.48	1.49
	32.40	16.62	67.65	0.00	0.0616	10.72	471.9	381.91	0.0493	351.9	6.334	12.53	4.53	1.49
	33.38	16.61	67.63	0.00	0.0616	10.73	472.0	382.12	0.0490	348.3	6.270	12.41	4.39	1.49
	34.40	16.61	67.63	0.00	0.0614	10.71	471.0	381.36	0.0500	354.7	6.384	12.63	4.64	1.49
	35.40	16.61	67.65	0.00	0.0615	10.70	470.7	380.95	0.0491	353.9	6.369	12.60	4.61	1.49
	36.41	16.62	67.65	-0.00	0.0617	10.73	472.3	382.22	0.0482	344.2	6.196	12.26	4.22	1.49
	37.39	16.61	67.65	-0.00	0.0618	10.75	472.8	382.69	0.0487	344.0	6.192	12.25	4.21	1.49
	38.39	16.61	67.63	0.00	0.0617	10.75	472.9	382.86	0.0485	342.0	6.157	12.18	4.13	1.49
	39.47	16.61	67.65	-0.00	0.0615	10.72	471.9	381.90	0.0489	348.6	6.274	12.41	4.40	1.49
	40.40	16.62	67.63	0.00	0.0615	10.73	472.1	382.19	0.0493	349.6	6.294	12.46	4.44	1.49
	41.39	16.62	67.65	0.00	0.0615	10.71	471.0	381.23	0.0499	357.4	6.433	12.73	4.75	1.49
	42.38	16.61	67.63	0.00	0.0615	10.70	470.7	381.03	0.0500	359.9	6.479	12.82	4.86	1.49
	43.38	16.62	67.63	0.00	0.0612	10.64	468.1	379.01	0.0514	368.5	6.633	13.13	5.19	1.49
	44.41	16.64	67.65	-0.00	0.0613	10.66	469.0	379.64	0.0510	367.8	6.620	13.10	5.17	1.49
	45.40	16.64	67.65	0.00	0.0614	10.70	470.9	381.15	0.0497	357.6	6.438	12.74	4.77	1.49
	46.41	16.64	67.63	0.00	0.0613	10.61	466.8	377.97	0.0520	383.4	6.902	13.66	5.77	1.49
	47.39	16.66	67.63	0.00	0.0609	10.59	465.8	377.18	0.0538	390.3	7.025	13.90	6.02	1.49
	48.41	16.64	67.65	0.00	0.0608	10.58	465.5	376.82	0.0539	393.1	7.075	14.00	6.13	1.49
	49.41	16.64	67.63	0.00	0.0605	10.52	462.9	374.82	0.0554	409.8	7.376	14.60	6.73	1.49
	50.39	16.64	67.65	0.00	0.0605	10.48	461.1	373.21	0.0552	419.1	7.544	14.93	7.06	1.49
	51.39	16.66	67.65	0.00	0.0603	10.45	460.0	372.34	0.0561	423.9	7.629	15.10	7.22	1.49
	52.40	16.64	67.63	-0.00	0.0603	10.42	458.3	371.07	0.0564	424.1	7.635	15.11	7.23	1.49
	53.40	16.66	67.68	0.00	0.0601	10.38	456.5	369.37	0.0569	430.4	7.747	15.32	7.45	1.49
	54.40	16.64	67.65	-0.00	0.0606	10.52	462.9	374.68	0.0546	405.9	7.306	14.46	6.59	1.49
	55.40	16.64	67.63	0.00	0.0607	10.50	462.2	374.19	0.0551	408.7	7.356	14.56	6.69	1.49
	56.38	16.67	67.65	0.00	0.0606	10.49	461.6	373.68	0.0546	405.8	7.304	14.45	6.59	1.49
	57.39	16.67	67.62	-0.00	0.0606	10.52	462.9	374.84	0.0546	404.2	7.275	14.40	6.53	1.49
	58.41	16.67	67.65	-0.00	0.0606	10.50	461.9	373.93	0.0544	406.8	7.323	14.49	6.63	1.49
	59.39	16.66	67.65	0.00	0.0607	10.53	463.5	375.15	0.0544	401.8	7.232	14.31	6.44	1.49
	60.47	16.67	67.65	0.00	0.0605	10.46	460.2	372.50	0.0551	409.5	7.370	14.58	6.72	1.49
	61.40	16.67	67.65	-0.00	0.0607	10.48	461.3	373.45	0.0545	406.5	7.317	14.48	6.62	1.49
	62.40	16.67	67.66	0.00	0.0606	10.49	461.6	373.60	0.0547	409.0	7.363	14.57	6.71	1.49
	63.38	16.69	67.65	0.00	0.0608	10.51	462.5	374.40	0.0536	399.1	7.183	14.21	6.35	1.49
	64.41	16.69	67.65	-0.00	0.0607	10.52	463.0	374.86	0.0540	396.9	7.145	14.14	6.27	1.49
	65.39	16.71	67.63	-0.00	0.0605	10.49	461.7	373.95	0.0547	407.8	7.341	14.53	6.66	1.49
	66.39	16.69	67.63	-0.00	0.0606	10.51	462.3	374.38	0.0541	402.4	7.244	14.34	6.47	1.49
	67.39	16.69	67.63	0.00	0.0607	10.54	463.9	375.72	0.0541	392.8	7.071	14.00	6.12	1.49
	68.41	16.69	67.65	0.00	0.0605	10.48	460.9	373.15	0.0546	408.0	7.345	14.53	6.67	1.49
	69.39	16.67	67.65	0.00	0.0605	10.47	460.7	372.95	0.0545	409.2	7.366	14.57	6.71	1.49
	70.39	16.71	67.62	0.00	0.0608	10.53	463.5	375.36	0.0534	393.4	7.082	14.02	6.14	1.49
	71.40	16.71	67.65	0.00	0.0606	10.47	460.9	373.13	0.0549	411.0	7.399	14.64	6.78	1.49
	72.38	16.72	67.65	0.00	0.0606	10.49	461.6	373.72	0.0543	403.4	7.261	14.37	6.51	1.49
	73.41	16.72	67.65	-0.00	0.0602	10.45	459.8	372.29	0.0558	415.9	7.487	14.82	6.95	1.49
	74.40	16.72	67.65	-0.00	0.0600	10.39	457.0	370.03	0.0561	422.4	7.603	15.05	7.18	1.49
	75.39	16.69	67.65	0.00	0.0599	10.35	455.3	368.60	0.0570	434.0	7.812	15.46	7.57	1.49
	76.39	16.69	67.65	0.00	0.0598	10.34	455.0	368.31	0.0581	428.8	7.718	15.27	7.39	1.49
	77.41	16.72	67.65	-0.00	0.0599	10.34	455.0	368.42	0.0586	444.6	8.002	15.84	7.93	1.49
	78.39	16.71	67.65	0.00	0.0600	10.36	456.0	369.18	0.0573	428.2	7.707	15.25	7.37	1.49
	79.37	16.74	67.65	0.00	0.0601	10.37	456.2	369.40	0.0574	434.0	7.812	15.46	7.57	1.49
	80.40	16.74	67.65	-0.00	0.0598	10.38	456.9	369.94	0.0576	425.4	7.656	15.15	7.28	1.49
	81.40	16.74	67.63	-0.00	0.0597	10.31	453.6	367.39	0.0586	448.8	8.079	16.00	8.07	1.49
	82.40	16.71	67.65	0.00	0.0597	10.32	454.0	367.54	0.0585	446.7	8.041	15.91	8.00	1.49
	83.40	16.72	67.63	-0.00	0.0597	10.31	453.8	367.51	0.0580	439.1	7.904	15.65	7.74	1.49
	84.38	16.74	67.63	-0.00	0.0599	10.34	455.0	368.55	0.0577	439.7	7.915	15.67	7.76	1.49
	85.39	16.74	67.60	0.00	0.0599	10.33	454.5	368.29	0.0580	442.2	7.959	15.76	7.85	1.50
	86.39	16.75	67.65	-0.00	0.0599	10.35	455.2	368.60	0.0583	444.4	7.999	15.83	7.92	1.49
	87.41	16.77	67.65	0.00	0.0598	10.29	452.7	366.59	0.0583	441.3	7.943	15.72	7.82	1.49
	88.41	16.75	67.63	-0.00	0.0597	10.28	452.4	366.49	0.0592	453.9	8.170	16.18	8.23	1.49
	89.40	16.74	67.65	0.00	0.0596	10.25	451.1	365.29	0.0587	449.9	8.099	16.03	8.10	1.49
	90.39	16.75	67.65	0.00	0.0599	10.34	454.9	368.37	0.0576	438.0	7.884	15.61	7.71	1.49
	91.39	16.75	67.63	-0.00	0.0596	10.33	454.4	368.07	0.0588	442.4	7.963	15.77	7.85	1.50
	92.40	16.77	67.67	0.00	0.0596	10.31	453.7	367.26	0.0582	442.6	7.967	15.77	7.86	1.50
	93.40	16.75	67.63	-0.00	0.0598	10.32	454.0	367.74	0.0573	433.2	7.798	15.44	7.55	1.49
	94.40	16.75	67.65	-0.00	0.0599	10.33	454.3	367.89	0.0577	439.6	7.912	15.66	7.76	1.49
	95.39	16.77	67.67	0.00	0.0597	10.28	452.3	366.13	0.0589	451.1	8.120	16.07	8.14	1.49
	96.41	16.77	67.63	-0.00	0.0596	10.28	452.5	366.54	0.0585	446.3	8.033	15.91	7.98	1.50
	97.41	16.77	67.65	-0.00	0.0592	10.21	449.1	363.71	0.0601	463.0	8.335	16.50	8.53	1.50
	98.39	16.80	67.63	0.00	0.0596	10.26	451.4	365.73	0.0593	455.3	8.195	16.23	8.28	1.49
	99.47	16.79	67.65	0.00	0.0591	10.19	448.2	362.95	0.0614	469.4	8.449	16.73	8.73	1.49
	100.39	16.79	67.65	0.00	0.0596	10.26	451.4	365.56	0.0599	461.3	8.304	16.44	8.47	1.49
	101.39	16.80	67.64	-0.00	0.0594	10.24	450.5	364.87	0.0602	464.2	8.355	16.54	8.56	1.49
	102.40	16.80	67.63	0.00	0.0594	10.25	451.0	365.39	0.0598	460.7	8.293	16.42	8.46	1.50
	103.40	16.79	67.65	0.00	0.0594	10.25	451.2	365.36	0.0598	463.7	8.347	16.52	8.55	1.50
	104.41	16.80	67.65	-0.00	0.0594	10.24	450.4	364.77	0.0604	469.1	8.444	16.72	8.72	1.49
	105.39	16.82	67.65	-0.00	0.0593	10.20	448.6	363.36	0.0605	469.3	8.448	16.73	8.73	1.50
	106.39	16.80	67.63	-0.00	0.0593	10.18	447.8	362.80	0.0609	471.1	8.479	16.79	8.78	1.49
	107.39	16.80	67.63	0.00	0.0593	10.21	449.1	363.83	0.0608	472.6	8.507	16.84	8.83	1.49
	108.39	16.80	67.62	0.00	0.0594	10.19	448.6	363.42	0.0600	466.9	8.404	16.64	8.65	1.50
	109.39	16.82	67.60	0.00	0.0593	10.18	447.8	362.97	0.0612	477.7	8.599	17.04	8.99	1.50
	110.42	16.84	67.65	-0.00	0.0593	10.18	447.9	362.80	0.0614	477.4	8.594	17.01	8.98	1.49
	111.46	16.80	67.63	0.00	0.0593	10.19	448.4	363.27	0.0602	465.6	8.380	16.59	8.61	1.50
	112.40	16.84	67.65	-0.00	0.0593	10.18	448.0	362.88	0.0604	474.0	8.533	16.89	8.88	1.49
	113.38	16.84	67.63	0.00	0.0594	10.20	448.8	363.63	0.0595	460.6	8.290	16.42	8.45	1.50
	114.39	16.84	67.68	0.00	0.0594	10.20	449.0	363.48	0.0599	464.5	8.361	16.55	8.58	1.50
	115.39	16.84	67.63	-0.00	0.0592	10.19	448.2	363.18	0.0610	473.4	8.522	16.88	8.86	1.50
	116.38	16.84	67.65	0.00	0.0594	10.20	448.7	363.43	0.0604	470.0	8.459	16.75	8.75	1.50
	117.41	16.85	67.63	-0.00	0.0592	10.19	448.5	363.41	0.0609	471.4	8.485	16.80	8.79	1.50
	118.40	16.84	67.65	-0.00	0.0590	10.15	446.4	361.57	0.0621	485.1	8.732	17.29	9.22	1.50
	119.40	16.84	67.63	-0.00	0.0591	10.14	446.0	361.36	0.0620	488.8	8.798	17.42	9.33	1.50
	120.40	16.84	67.63	0.00	0.0591	10.14	446.2	361.51	0.0615	484.3	8.717	17.26	9.19	1.50
	121.38	16.84	67.65	0.00	0.0591	10.15	446.6	361.75	0.0613	482.0	8.676	17.18	9.12	1.50
	122.40	16.87	67.65	0.00	0.0592	10.18	447.7	362.68	0.0614	477.1	8.588	17.01	8.97	1.50
	123.38	16.87	67.67	0.00	0.0592	10.19	448.4	363.12	0.0614	472.6	8.507	16.84	8.83	1.50
	124.39	16.87	67.65	0.00	0.0594	10.19	448.3	363.16	0.0605	472.4	8.504	16.84	8.83	1.50
