Jul 28 2015 at 13:09:50
Frequency: 1.00Hz.
CO2
Zero:  Value:0.95  Date:18 Mar 2005	 at 07:22:33	
Span:  Value:1.00  Date:18 Mar 2005	 at 07:25:09	
H2O
Zero:  Value:0.71  Date:18 Mar 2005	 at 07:52:31	
Span:  Value:0.99  Date:18 Mar 2005	 at 11:44:01	
	Relative Time	Temperature	Pressure	Aux Input	CO2 Absorptance	CO2 mmol/m3	CO2 mg/m3	CO2 umol/mol	H2O Absorptance	H2O mmol/m3	H2O g/m3	H2O mmol/mol	H2O(°C)	Cooler Voltage
	0.01	30.79	67.68	0.00	0.0631	11.05	486.0	412.45	0.0364	231.8	4.173	8.66	-0.64	1.60
	1.03	30.77	67.70	-0.00	0.0631	11.05	486.0	412.24	0.0364	234.1	4.213	8.74	-0.51	1.60
	2.01	30.78	67.68	0.00	0.0629	11.05	486.3	412.63	0.0377	240.7	4.332	8.99	-0.12	1.60
	3.03	30.80	67.70	0.00	0.0629	11.03	485.5	411.87	0.0384	255.0	4.590	9.52	0.67	1.60
	4.04	30.78	67.70	0.00	0.0628	11.01	484.5	411.01	0.0375	245.3	4.415	9.15	0.14	1.60
	5.02	30.80	67.72	0.00	0.0629	11.01	484.4	410.83	0.0373	241.3	4.343	9.00	-0.09	1.60
	6.04	30.77	67.68	0.00	0.0629	11.02	484.8	411.39	0.0377	242.2	4.359	9.04	-0.04	1.60
	7.02	30.82	67.70	0.00	0.0627	10.98	483.2	409.93	0.0379	246.8	4.442	9.21	0.22	1.60
	8.03	30.84	67.70	0.00	0.0628	10.99	483.5	410.22	0.0386	252.2	4.539	9.41	0.52	1.60
	9.03	30.85	67.73	-0.00	0.0628	10.99	483.5	410.06	0.0386	253.5	4.564	9.46	0.60	1.60
	10.05	30.82	67.70	-0.00	0.0627	10.98	483.0	409.80	0.0384	252.1	4.539	9.41	0.52	1.60
	11.03	30.84	67.70	-0.00	0.0626	10.95	481.9	408.83	0.0388	254.5	4.580	9.50	0.65	1.60
	12.03	30.84	67.70	-0.00	0.0627	10.96	482.1	409.02	0.0391	256.8	4.623	9.59	0.78	1.60
	13.04	30.81	67.73	-0.00	0.0625	10.92	480.3	407.32	0.0387	254.8	4.586	9.51	0.66	1.60
	14.04	30.83	67.70	-0.00	0.0624	10.90	479.7	406.94	0.0395	259.6	4.674	9.69	0.93	1.60
	15.05	30.85	67.70	-0.00	0.0623	10.90	479.4	406.81	0.0393	258.9	4.661	9.67	0.89	1.60
	16.02	30.84	67.75	0.00	0.0622	10.88	478.9	406.01	0.0390	258.3	4.650	9.64	0.86	1.60
	17.05	30.87	67.70	-0.00	0.0623	10.89	479.1	406.55	0.0393	260.2	4.683	9.71	0.96	1.60
	18.02	30.84	67.72	0.00	0.0625	10.92	480.6	407.59	0.0394	260.6	4.691	9.73	0.98	1.60
	19.02	30.83	67.70	0.00	0.0625	10.92	480.4	407.54	0.0399	263.1	4.737	9.82	1.11	1.60
	20.03	30.85	67.70	-0.00	0.0625	10.92	480.5	407.67	0.0401	269.7	4.855	10.07	1.46	1.60
	21.03	30.86	67.70	0.00	0.0623	10.89	479.0	406.45	0.0395	262.1	4.718	9.78	1.06	1.60
	22.04	30.81	67.70	-0.00	0.0625	10.90	479.7	406.94	0.0412	263.7	4.746	9.84	1.14	1.60
	23.02	30.75	67.70	-0.00	0.0623	10.90	479.8	406.95	0.0411	274.3	4.937	10.24	1.68	1.60
	24.04	30.76	67.75	-0.00	0.0626	10.94	481.4	408.05	0.0422	284.8	5.126	10.62	2.21	1.60
	25.01	30.73	67.70	0.00	0.0624	10.90	479.5	406.65	0.0420	278.7	5.017	10.40	1.91	1.60
	26.02	30.73	67.70	0.00	0.0622	10.86	477.6	405.07	0.0395	264.8	4.766	9.88	1.19	1.60
	27.04	30.69	67.70	0.00	0.0624	10.88	478.8	406.02	0.0397	261.1	4.700	9.74	1.00	1.60
	28.03	30.69	67.68	-0.00	0.0622	10.86	477.9	405.45	0.0394	259.5	4.671	9.69	0.91	1.60
	29.11	30.68	67.70	-0.00	0.0623	10.89	479.0	406.20	0.0408	270.2	4.864	10.08	1.47	1.60
	30.03	30.67	67.71	0.00	0.0622	10.86	478.0	405.33	0.0418	279.5	5.031	10.43	1.95	1.60
	31.03	30.67	67.73	0.00	0.0620	10.84	477.0	404.34	0.0420	281.5	5.067	10.50	2.05	1.60
	32.01	30.70	67.70	0.00	0.0620	10.84	476.9	404.42	0.0434	298.6	5.375	11.14	2.88	1.60
	33.04	30.67	67.70	-0.00	0.0621	10.85	477.2	404.65	0.0422	281.2	5.062	10.49	2.03	1.60
	34.04	30.69	67.70	0.00	0.0621	10.84	477.0	404.52	0.0437	302.7	5.448	11.29	3.07	1.60
	35.02	30.76	67.72	0.00	0.0622	10.86	478.0	405.34	0.0464	321.7	5.790	12.00	3.93	1.60
	36.04	30.71	67.70	0.00	0.0621	10.83	476.4	404.04	0.0473	326.4	5.876	12.18	4.14	1.60
	37.02	30.71	67.72	0.00	0.0620	10.80	475.2	402.91	0.0474	334.2	6.015	12.47	4.47	1.60
	38.11	30.74	67.68	-0.00	0.0619	10.81	475.5	403.42	0.0462	321.4	5.786	12.00	3.92	1.60
	39.03	30.71	67.70	-0.00	0.0618	10.76	473.5	401.55	0.0482	339.8	6.117	12.68	4.71	1.60
	40.01	30.69	67.70	0.00	0.0619	10.79	474.6	402.47	0.0487	344.4	6.199	12.85	4.90	1.60
	41.01	30.70	67.70	0.00	0.0619	10.78	474.5	402.40	0.0497	359.5	6.471	13.41	5.52	1.60
	42.03	30.72	67.72	-0.00	0.0618	10.77	473.7	401.62	0.0498	355.1	6.391	13.25	5.34	1.60
	43.02	30.71	67.72	0.00	0.0618	10.76	473.4	401.37	0.0497	351.7	6.331	13.12	5.21	1.60
	44.02	30.69	67.70	0.00	0.0618	10.77	474.1	402.01	0.0527	384.5	6.921	14.35	6.49	1.60
	45.04	30.67	67.70	0.00	0.0617	10.76	473.4	401.43	0.0538	395.3	7.116	14.75	6.90	1.60
	46.02	30.69	67.70	0.00	0.0620	10.81	475.6	403.28	0.0536	394.8	7.107	14.73	6.88	1.60
	47.05	30.69	67.73	-0.00	0.0622	10.86	478.0	405.24	0.0517	373.0	6.714	13.91	6.05	1.60
	48.03	30.67	67.71	-0.00	0.0624	10.89	479.0	406.17	0.0518	371.7	6.690	13.87	6.00	1.60
	49.03	30.73	67.70	0.00	0.0623	10.89	479.1	406.37	0.0520	380.7	6.852	14.21	6.35	1.60
	50.03	30.78	67.70	-0.00	0.0624	10.90	479.8	406.97	0.0534	383.4	6.902	14.31	6.46	1.60
	51.03	30.78	67.70	0.00	0.0625	10.92	480.3	407.43	0.0555	413.6	7.444	15.44	7.56	1.60
	52.03	30.74	67.75	0.00	0.0623	10.87	478.3	405.36	0.0526	389.2	7.006	14.51	6.67	1.60
	53.02	30.75	67.72	0.00	0.0622	10.88	478.6	405.77	0.0523	381.0	6.858	14.22	6.36	1.60
	54.02	30.69	67.70	0.00	0.0627	10.96	482.2	408.88	0.0516	373.6	6.725	13.94	6.08	1.60
	55.02	30.75	67.71	0.00	0.0625	10.92	480.5	407.52	0.0520	382.4	6.882	14.27	6.41	1.60
	56.03	30.75	67.70	-0.00	0.0624	10.90	479.5	406.75	0.0525	383.6	6.904	14.31	6.46	1.60
	57.03	30.77	67.70	-0.00	0.0624	10.91	480.0	407.19	0.0528	386.1	6.951	14.41	6.56	1.60
	58.02	30.77	67.72	0.00	0.0624	10.91	479.9	406.94	0.0528	386.6	6.959	14.42	6.58	1.60
	59.03	30.82	67.70	0.00	0.0625	10.93	480.8	407.88	0.0529	387.1	6.968	14.45	6.60	1.60
	60.01	30.78	67.70	0.00	0.0624	10.91	480.1	407.23	0.0534	394.3	7.097	14.72	6.86	1.60
	61.01	30.78	67.70	0.00	0.0624	10.89	479.2	406.52	0.0534	393.7	7.087	14.69	6.84	1.60
	62.03	30.81	67.70	0.00	0.0624	10.92	480.4	407.51	0.0540	398.7	7.177	14.88	7.03	1.60
	63.02	30.83	67.70	0.00	0.0623	10.89	479.0	406.36	0.0539	397.5	7.156	14.84	6.98	1.59
	64.02	30.86	67.72	0.00	0.0622	10.86	477.9	405.32	0.0535	393.4	7.081	14.68	6.83	1.60
	65.04	30.85	67.70	-0.00	0.0620	10.82	476.2	404.08	0.0531	390.4	7.027	14.57	6.72	1.60
	66.03	30.85	67.70	-0.00	0.0621	10.85	477.3	404.99	0.0532	386.6	6.958	14.43	6.58	1.60
	67.02	30.83	67.70	0.00	0.0622	10.84	476.9	404.62	0.0528	390.0	7.020	14.56	6.71	1.60
	68.03	30.83	67.73	0.00	0.0621	10.83	476.4	404.00	0.0522	382.5	6.885	14.27	6.42	1.60
	69.02	30.83	67.70	0.00	0.0619	10.79	474.8	402.81	0.0526	385.5	6.939	14.39	6.54	1.60
	70.01	30.83	67.70	0.00	0.0617	10.75	472.8	401.19	0.0526	384.9	6.929	14.37	6.52	1.60
	71.01	30.84	67.72	0.00	0.0618	10.76	473.5	401.56	0.0525	385.6	6.940	14.39	6.54	1.60
	72.01	30.82	67.72	0.00	0.0619	10.78	474.1	402.12	0.0518	380.0	6.840	14.18	6.33	1.60
	73.04	30.84	67.70	-0.00	0.0618	10.76	473.6	401.79	0.0514	369.8	6.657	13.81	5.94	1.60
	74.02	30.78	67.70	0.00	0.0620	10.78	474.4	402.46	0.0512	371.6	6.689	13.87	6.00	1.60
	75.04	30.77	67.70	-0.00	0.0621	10.82	476.1	403.86	0.0518	375.1	6.752	14.00	6.14	1.60
	76.02	30.77	67.70	0.00	0.0620	10.81	475.7	403.51	0.0504	364.5	6.560	13.60	5.72	1.60
	77.03	30.77	67.68	0.00	0.0618	10.78	474.3	402.50	0.0506	362.5	6.524	13.53	5.64	1.60
	78.03	30.84	67.73	-0.00	0.0617	10.76	473.4	401.47	0.0507	365.7	6.582	13.65	5.77	1.59
	79.03	30.84	67.68	-0.00	0.0618	10.75	472.8	401.33	0.0516	368.8	6.638	13.77	5.89	1.60
	80.09	30.83	67.70	0.00	0.0617	10.75	473.1	401.36	0.0511	370.4	6.667	13.83	5.96	1.60
	81.01	30.84	67.70	0.00	0.0617	10.74	472.5	400.87	0.0505	366.2	6.592	13.67	5.80	1.60
	82.03	30.85	67.70	0.00	0.0618	10.76	473.5	401.73	0.0505	363.3	6.540	13.56	5.68	1.60
	83.01	30.83	67.70	0.00	0.0617	10.75	472.8	401.14	0.0503	362.9	6.532	13.55	5.66	1.60
	84.02	30.83	67.70	0.00	0.0617	10.75	472.8	401.15	0.0497	359.2	6.465	13.41	5.51	1.60
	85.02	30.82	67.70	-0.00	0.0618	10.77	473.8	401.96	0.0481	341.7	6.151	12.75	4.80	1.59
	86.03	30.84	67.72	0.00	0.0618	10.76	473.6	401.67	0.0499	347.7	6.259	12.98	5.05	1.60
	87.03	30.84	67.70	-0.00	0.0615	10.72	471.8	400.26	0.0496	356.3	6.414	13.30	5.40	1.60
	88.02	30.85	67.73	0.00	0.0618	10.75	472.8	400.99	0.0515	371.5	6.686	13.86	6.00	1.60
	89.09	30.83	67.72	0.00	0.0616	10.73	472.1	400.39	0.0511	368.4	6.631	13.75	5.88	1.60
	90.03	30.85	67.70	-0.00	0.0618	10.77	473.7	401.95	0.0501	362.3	6.521	13.53	5.64	1.60
	91.03	30.83	67.70	0.00	0.0618	10.77	473.9	402.01	0.0507	362.3	6.522	13.53	5.64	1.60
	92.03	30.85	67.73	-0.00	0.0619	10.78	474.4	402.35	0.0508	370.1	6.662	13.81	5.95	1.60
	93.10	30.82	67.70	-0.00	0.0617	10.76	473.4	401.59	0.0499	358.0	6.444	13.36	5.47	1.60
	94.01	30.85	67.70	0.00	0.0616	10.73	472.0	400.48	0.0510	364.5	6.562	13.61	5.73	1.60
	95.03	30.85	67.72	0.00	0.0617	10.74	472.7	400.95	0.0515	372.2	6.699	13.89	6.03	1.60
	96.02	30.82	67.70	0.00	0.0616	10.72	471.9	400.33	0.0507	360.3	6.486	13.45	5.56	1.60
	97.05	30.83	67.73	0.00	0.0616	10.72	471.9	400.18	0.0503	362.4	6.522	13.52	5.64	1.60
	98.03	30.84	67.72	0.00	0.0616	10.71	471.3	399.71	0.0501	357.5	6.435	13.34	5.45	1.60
	99.03	30.80	67.70	0.00	0.0616	10.73	472.1	400.47	0.0500	358.0	6.444	13.36	5.47	1.60
	100.11	30.79	67.72	-0.00	0.0618	10.75	473.0	401.11	0.0526	377.5	6.796	14.09	6.23	1.60
	101.04	30.77	67.70	-0.00	0.0618	10.76	473.3	401.45	0.0526	385.2	6.934	14.38	6.52	1.60
	102.02	30.76	67.70	0.00	0.0618	10.75	473.1	401.30	0.0526	385.8	6.944	14.40	6.54	1.60
	103.01	30.69	67.72	0.00	0.0618	10.75	473.1	401.08	0.0540	399.0	7.181	14.88	7.03	1.60
	104.02	30.61	67.73	0.00	0.0618	10.76	473.5	401.30	0.0535	392.0	7.056	14.62	6.77	1.60
	105.02	30.61	67.70	-0.00	0.0617	10.75	473.0	401.01	0.0532	391.3	7.044	14.60	6.74	1.60
	106.03	30.61	67.73	-0.00	0.0617	10.74	472.5	400.45	0.0539	394.3	7.097	14.70	6.85	1.60
	107.03	30.63	67.70	0.00	0.0616	10.71	471.4	399.69	0.0527	386.0	6.947	14.40	6.54	1.60
	108.02	30.59	67.72	0.00	0.0617	10.71	471.3	399.37	0.0520	381.9	6.874	14.24	6.39	1.60
	109.04	30.64	67.75	-0.00	0.0618	10.72	471.6	399.60	0.0526	378.2	6.807	14.10	6.25	1.60
	110.03	30.65	67.70	-0.00	0.0617	10.74	472.5	400.60	0.0533	389.8	7.017	14.54	6.69	1.60
	111.04	30.63	67.70	0.00	0.0617	10.73	472.3	400.44	0.0536	395.2	7.114	14.74	6.89	1.60
	112.02	30.72	67.70	-0.00	0.0615	10.70	470.9	399.41	0.0536	395.9	7.126	14.77	6.92	1.60
	113.02	30.71	67.70	0.00	0.0615	10.71	471.1	399.57	0.0545	404.1	7.274	15.08	7.22	1.60
	114.02	30.75	67.72	0.00	0.0616	10.72	471.8	400.08	0.0544	401.8	7.233	14.99	7.14	1.60
	115.02	30.75	67.72	0.00	0.0615	10.70	470.7	399.13	0.0535	397.8	7.160	14.84	6.99	1.60
	116.03	30.77	67.70	-0.00	0.0614	10.70	470.6	399.21	0.0531	389.5	7.011	14.54	6.68	1.60
	117.02	30.75	67.70	0.00	0.0617	10.74	472.4	400.69	0.0558	418.2	7.527	15.61	7.72	1.60
	118.03	30.75	67.72	-0.00	0.0616	10.72	471.6	399.87	0.0552	413.7	7.446	15.43	7.56	1.60
	119.03	30.77	67.70	-0.00	0.0616	10.72	471.5	399.94	0.0552	409.8	7.377	15.29	7.43	1.60
	120.03	30.78	67.70	0.00	0.0616	10.72	471.7	400.14	0.0558	415.1	7.472	15.49	7.61	1.60
	121.03	30.79	67.70	0.00	0.0615	10.70	470.9	399.44	0.0547	407.6	7.337	15.22	7.35	1.60
	122.02	30.77	67.68	0.00	0.0615	10.69	470.2	399.00	0.0543	402.0	7.236	15.01	7.14	1.60
