Jul 28 2015 at 15:46:50
Frequency: 1.00Hz.
CO2
Zero:  Value:0.95  Date:18 Mar 2005	 at 07:22:33	
Span:  Value:1.00  Date:18 Mar 2005	 at 07:25:09	
H2O
Zero:  Value:0.71  Date:18 Mar 2005	 at 07:52:31	
Span:  Value:0.99  Date:18 Mar 2005	 at 11:44:01	
	Relative Time	Temperature	Pressure	Aux Input	CO2 Absorptance	CO2 mmol/m3	CO2 mg/m3	CO2 umol/mol	H2O Absorptance	H2O mmol/m3	H2O g/m3	H2O mmol/mol	H2O(°C)	Cooler Voltage
	0.72	31.52	66.87	0.00	0.0614	10.71	471.3	405.79	0.0441	303.5	5.463	11.50	3.14	1.61
	1.72	31.53	66.87	0.00	0.0613	10.71	471.2	405.72	0.0441	304.7	5.484	11.54	3.20	1.61
	2.70	31.51	66.87	0.00	0.0613	10.70	471.0	405.46	0.0437	301.2	5.422	11.41	3.04	1.61
	3.71	31.50	66.87	0.00	0.0613	10.69	470.3	404.85	0.0443	300.5	5.409	11.38	3.00	1.61
	4.71	31.51	66.87	0.00	0.0613	10.69	470.5	405.04	0.0440	302.6	5.447	11.46	3.10	1.61
	5.71	31.53	66.89	0.00	0.0614	10.69	470.3	404.80	0.0444	304.4	5.480	11.53	3.19	1.61
	6.72	31.56	66.90	-0.00	0.0612	10.72	471.5	405.79	0.0442	306.0	5.508	11.59	3.26	1.61
	7.71	31.53	66.87	0.00	0.0611	10.64	468.2	403.11	0.0442	303.7	5.467	11.51	3.15	1.61
	8.77	31.52	66.89	0.00	0.0611	10.65	468.4	403.13	0.0450	311.3	5.603	11.79	3.50	1.61
	9.70	31.47	66.87	0.00	0.0610	10.64	468.3	403.11	0.0448	310.5	5.589	11.76	3.46	1.61
	10.70	31.52	66.89	0.00	0.0611	10.66	469.1	403.74	0.0455	318.2	5.727	12.05	3.81	1.61
	11.78	31.55	66.89	-0.00	0.0611	10.65	468.6	403.35	0.0464	325.3	5.856	12.32	4.13	1.61
	12.70	31.55	66.89	0.00	0.0612	10.65	468.7	403.38	0.0465	324.2	5.836	12.28	4.08	1.61
	13.70	31.56	66.92	0.00	0.0612	10.65	468.5	403.14	0.0466	323.3	5.819	12.24	4.04	1.61
	14.71	31.57	66.87	0.00	0.0613	10.67	469.5	404.29	0.0474	330.6	5.950	12.52	4.36	1.61
	15.72	31.55	66.87	0.00	0.0611	10.65	468.6	403.43	0.0479	337.8	6.080	12.80	4.67	1.61
	16.71	31.58	66.89	0.00	0.0612	10.67	469.3	403.98	0.0462	327.8	5.901	12.42	4.24	1.61
	17.72	31.56	66.89	-0.00	0.0612	10.65	468.4	403.19	0.0492	345.2	6.213	13.07	4.98	1.61
	18.80	31.52	66.89	-0.00	0.0612	10.67	469.3	403.89	0.0481	342.3	6.161	12.96	4.85	1.61
	19.72	31.53	66.89	-0.00	0.0611	10.65	468.6	403.26	0.0471	331.1	5.960	12.54	4.38	1.61
	20.70	31.51	66.92	0.00	0.0612	10.65	468.8	403.30	0.0482	340.6	6.130	12.89	4.78	1.61
	21.70	31.49	66.88	0.00	0.0611	10.65	468.5	403.25	0.0483	343.8	6.188	13.02	4.92	1.61
	22.78	31.46	66.92	0.00	0.0611	10.65	468.5	402.99	0.0473	333.4	6.001	12.62	4.48	1.61
	23.70	31.50	66.89	0.00	0.0610	10.62	467.3	402.16	0.0459	323.4	5.822	12.25	4.04	1.61
	24.70	31.43	66.92	0.00	0.0609	10.62	467.1	401.76	0.0452	317.2	5.709	12.00	3.76	1.61
	25.71	31.45	66.89	0.00	0.0611	10.65	468.4	403.03	0.0470	329.2	5.925	12.46	4.29	1.61
	26.69	31.47	66.92	0.00	0.0611	10.64	468.4	402.87	0.0468	328.7	5.916	12.44	4.27	1.61
	27.69	31.45	66.89	0.00	0.0610	10.63	467.8	402.47	0.0468	328.9	5.921	12.45	4.28	1.61
	28.73	31.47	66.89	-0.00	0.0610	10.64	468.0	402.65	0.0464	325.3	5.856	12.32	4.13	1.61
	29.78	31.47	66.89	0.00	0.0611	10.65	468.6	403.22	0.0483	343.6	6.186	13.01	4.91	1.61
	30.70	31.51	66.89	0.00	0.0611	10.63	467.8	402.55	0.0483	344.2	6.196	13.03	4.93	1.61
	31.71	31.49	66.89	-0.00	0.0608	10.57	465.1	400.20	0.0465	324.7	5.845	12.29	4.10	1.61
	32.71	31.51	66.89	-0.00	0.0609	10.62	467.2	402.08	0.0471	329.8	5.936	12.49	4.32	1.61
	33.71	31.51	66.90	-0.00	0.0611	10.65	468.6	403.25	0.0484	344.2	6.195	13.03	4.93	1.61
	34.69	31.49	66.90	0.00	0.0608	10.60	466.3	401.25	0.0471	335.1	6.032	12.69	4.55	1.61
	35.71	31.47	66.89	0.00	0.0610	10.63	467.8	402.49	0.0473	332.5	5.985	12.59	4.44	1.61
	36.72	31.44	66.89	-0.00	0.0610	10.65	468.4	403.01	0.0479	339.0	6.102	12.83	4.71	1.61
	37.70	31.49	66.85	0.00	0.0611	10.65	468.5	403.38	0.0482	340.2	6.124	12.89	4.77	1.61
	38.70	31.47	66.89	0.00	0.0611	10.61	466.8	401.67	0.0483	341.2	6.141	12.92	4.81	1.61
	39.70	31.54	66.92	-0.00	0.0611	10.64	468.0	402.61	0.0482	342.4	6.163	12.96	4.86	1.61
	40.70	31.49	66.85	0.00	0.0608	10.58	465.5	400.83	0.0472	333.2	5.997	12.62	4.47	1.61
	41.70	31.46	66.89	0.00	0.0609	10.60	466.2	401.14	0.0475	335.0	6.029	12.68	4.54	1.61
	42.71	31.49	66.92	-0.00	0.0610	10.63	467.5	402.19	0.0478	338.3	6.089	12.80	4.68	1.61
	43.77	31.54	66.89	0.00	0.0611	10.63	467.8	402.61	0.0482	341.8	6.153	12.94	4.84	1.61
	44.69	31.50	66.89	0.00	0.0611	10.63	467.8	402.54	0.0482	342.5	6.166	12.97	4.86	1.61
	45.69	31.53	66.85	0.00	0.0611	10.63	467.8	402.86	0.0482	342.0	6.157	12.96	4.84	1.61
	46.71	31.51	66.87	-0.00	0.0610	10.63	467.5	402.51	0.0481	342.1	6.158	12.96	4.85	1.61
	47.70	31.53	66.89	-0.00	0.0610	10.63	467.7	402.52	0.0482	341.5	6.147	12.93	4.82	1.61
	48.72	31.54	66.89	-0.00	0.0611	10.65	468.4	403.13	0.0485	344.7	6.205	13.05	4.96	1.61
	49.72	31.54	66.89	0.00	0.0611	10.63	467.9	402.66	0.0483	343.3	6.179	13.00	4.90	1.61
	50.72	31.45	66.87	0.00	0.0611	10.64	468.3	403.05	0.0491	349.2	6.285	13.22	5.14	1.61
	51.71	31.51	66.87	-0.00	0.0611	10.64	468.2	403.06	0.0493	352.4	6.343	13.35	5.27	1.61
	52.73	31.51	66.89	-0.00	0.0612	10.67	469.3	403.88	0.0499	358.3	6.450	13.57	5.51	1.61
	53.71	31.53	66.89	0.00	0.0611	10.66	468.9	403.54	0.0495	356.3	6.414	13.49	5.43	1.61
	54.69	31.51	66.84	0.00	0.0611	10.65	468.4	403.44	0.0494	354.5	6.381	13.43	5.36	1.61
	55.72	31.54	66.86	0.00	0.0610	10.63	467.7	402.71	0.0489	349.9	6.298	13.25	5.17	1.61
	56.71	31.52	66.89	0.00	0.0611	10.65	468.5	403.18	0.0492	353.3	6.360	13.38	5.31	1.61
	57.70	31.55	66.89	0.00	0.0613	10.68	470.1	404.63	0.0504	363.1	6.536	13.75	5.71	1.61
	58.70	31.51	66.92	0.00	0.0611	10.66	469.1	403.51	0.0500	362.3	6.521	13.71	5.67	1.61
	59.70	31.50	66.92	0.00	0.0611	10.65	468.8	403.25	0.0500	360.7	6.492	13.65	5.61	1.61
	60.70	31.51	66.89	-0.00	0.0613	10.68	469.8	404.28	0.0505	364.7	6.565	13.81	5.77	1.61
	61.70	31.51	66.89	0.00	0.0613	10.70	471.0	405.28	0.0508	371.0	6.677	14.05	6.01	1.61
	62.70	31.54	66.92	0.00	0.0613	10.69	470.3	404.57	0.0508	369.2	6.646	13.98	5.94	1.61
	63.70	31.53	66.87	0.00	0.0613	10.65	468.6	403.41	0.0508	360.6	6.491	13.66	5.61	1.61
	64.79	31.53	66.92	0.00	0.0612	10.67	469.4	403.84	0.0510	370.6	6.670	14.03	6.00	1.61
	65.71	31.53	66.89	0.00	0.0611	10.66	469.1	403.70	0.0510	369.7	6.655	14.00	5.96	1.61
	66.72	31.51	66.89	0.00	0.0611	10.65	468.5	403.14	0.0503	363.1	6.536	13.75	5.70	1.61
	67.80	31.56	66.89	-0.00	0.0612	10.66	469.0	403.71	0.0503	362.9	6.532	13.74	5.70	1.61
	68.70	31.53	66.92	0.00	0.0613	10.69	470.5	404.80	0.0515	374.7	6.744	14.18	6.16	1.61
	69.72	31.51	66.87	-0.00	0.0615	10.70	470.6	405.17	0.0517	373.9	6.730	14.16	6.13	1.61
	70.73	31.51	66.89	-0.00	0.0615	10.70	470.8	405.18	0.0516	374.2	6.736	14.17	6.14	1.61
	71.71	31.51	66.92	-0.00	0.0612	10.69	470.3	404.61	0.0508	369.1	6.643	13.97	5.94	1.61
	72.71	31.48	66.89	-0.00	0.0611	10.66	468.8	403.42	0.0508	367.4	6.613	13.91	5.87	1.61
	73.73	31.44	66.87	0.00	0.0611	10.66	469.2	403.80	0.0508	368.5	6.632	13.95	5.91	1.61
	74.79	31.44	66.87	-0.00	0.0612	10.69	470.4	404.86	0.0508	369.9	6.658	14.01	5.97	1.61
	75.69	31.41	66.89	0.00	0.0613	10.69	470.3	404.56	0.0507	368.7	6.636	13.96	5.92	1.61
	76.70	31.45	66.89	-0.00	0.0613	10.69	470.4	404.74	0.0507	368.1	6.626	13.93	5.90	1.61
	77.70	31.41	66.92	0.00	0.0613	10.69	470.3	404.43	0.0508	367.6	6.617	13.91	5.88	1.61
	78.77	31.40	66.90	0.00	0.0613	10.68	470.0	404.27	0.0509	368.6	6.635	13.95	5.92	1.61
	79.70	31.42	66.89	0.00	0.0614	10.71	471.2	405.37	0.0514	374.1	6.733	14.16	6.13	1.61
	80.70	31.45	66.89	0.00	0.0615	10.77	473.8	407.62	0.0522	384.1	6.913	14.54	6.51	1.61
	81.79	31.49	66.89	-0.00	0.0615	10.73	472.2	406.33	0.0520	378.7	6.817	14.34	6.31	1.61
	82.71	31.45	66.89	-0.00	0.0616	10.76	473.4	407.36	0.0522	382.7	6.889	14.49	6.46	1.61
	83.69	31.43	66.89	0.00	0.0617	10.78	474.1	407.94	0.0528	386.3	6.954	14.63	6.60	1.61
	84.71	31.43	66.89	0.00	0.0616	10.77	473.7	407.55	0.0525	384.2	6.915	14.54	6.52	1.61
	85.77	31.45	66.90	0.00	0.0615	10.74	472.5	406.52	0.0522	382.2	6.880	14.47	6.44	1.61
	86.70	31.45	66.89	-0.00	0.0617	10.77	473.9	407.74	0.0527	386.4	6.955	14.63	6.60	1.61
	87.72	31.44	66.90	-0.00	0.0615	10.74	472.7	406.66	0.0525	385.3	6.936	14.59	6.56	1.61
	88.70	31.45	66.87	0.00	0.0615	10.72	471.6	405.94	0.0523	381.4	6.864	14.44	6.41	1.61
	89.72	31.49	66.92	0.00	0.0616	10.79	474.6	408.22	0.0526	389.2	7.006	14.73	6.71	1.61
	90.70	31.47	66.89	0.00	0.0616	10.76	473.3	407.27	0.0525	385.5	6.939	14.59	6.57	1.61
	91.70	31.47	66.89	0.00	0.0615	10.74	472.5	406.59	0.0523	384.2	6.916	14.55	6.52	1.62
	92.69	31.46	66.89	0.00	0.0615	10.73	472.1	406.23	0.0523	383.2	6.898	14.51	6.48	1.62
	93.69	31.49	66.92	0.00	0.0616	10.75	472.9	406.85	0.0524	383.3	6.899	14.51	6.48	1.61
	94.72	31.53	66.90	0.00	0.0617	10.80	475.0	408.77	0.0530	391.3	7.044	14.82	6.79	1.61
	95.71	31.49	66.88	0.00	0.0616	10.76	473.5	407.58	0.0525	385.2	6.933	14.59	6.56	1.61
	96.72	31.50	66.90	0.00	0.0618	10.82	476.1	409.71	0.0534	394.5	7.101	14.94	6.91	1.62
	97.72	31.49	66.89	-0.00	0.0617	10.78	474.1	408.00	0.0529	390.6	7.030	14.79	6.76	1.62
	98.73	31.50	66.92	-0.00	0.0615	10.73	472.1	406.13	0.0523	383.4	6.901	14.51	6.49	1.61
	99.78	31.54	66.89	0.00	0.0616	10.75	472.9	407.02	0.0525	385.2	6.933	14.59	6.56	1.62
	100.70	31.49	66.87	0.00	0.0619	10.83	476.4	410.11	0.0539	397.7	7.159	15.06	7.02	1.61
	101.71	31.53	66.90	0.00	0.0618	10.80	475.3	409.00	0.0539	397.9	7.162	15.07	7.03	1.62
	102.71	31.49	66.87	-0.00	0.0618	10.82	476.1	409.86	0.0541	402.1	7.238	15.23	7.18	1.62
	103.71	31.51	66.89	0.00	0.0619	10.82	476.2	409.84	0.0540	401.0	7.219	15.19	7.15	1.62
	104.71	31.47	66.89	0.00	0.0620	10.83	476.5	410.01	0.0543	401.5	7.227	15.20	7.16	1.62
	105.72	31.47	66.89	-0.00	0.0620	10.85	477.4	410.80	0.0543	405.3	7.296	15.35	7.30	1.62
	106.70	31.49	66.87	-0.00	0.0619	10.82	476.1	409.80	0.0543	402.8	7.250	15.26	7.21	1.62
	107.69	31.49	66.89	0.00	0.0620	10.84	477.0	410.43	0.0546	405.8	7.305	15.37	7.32	1.62
	108.70	31.45	66.89	0.00	0.0619	10.87	478.2	411.45	0.0544	410.0	7.381	15.52	7.47	1.62
	109.70	31.51	66.89	0.00	0.0617	10.79	474.9	408.65	0.0539	401.0	7.217	15.18	7.14	1.62
	110.68	31.49	66.90	0.00	0.0618	10.80	475.4	409.08	0.0543	403.2	7.258	15.27	7.22	1.62
	111.73	31.49	66.89	-0.00	0.0617	10.79	474.9	408.67	0.0540	401.3	7.223	15.19	7.15	1.62
	112.73	31.45	66.89	-0.00	0.0620	10.83	476.7	410.14	0.0547	405.9	7.307	15.37	7.32	1.62
	113.77	31.46	66.89	0.00	0.0617	10.79	474.7	408.48	0.0540	401.6	7.229	15.20	7.16	1.62
	114.71	31.47	66.89	-0.00	0.0620	10.85	477.5	410.91	0.0546	409.0	7.363	15.49	7.43	1.62
	115.71	31.44	66.92	0.00	0.0618	10.84	476.9	410.15	0.0543	407.0	7.326	15.40	7.36	1.62
	116.70	31.47	66.90	0.00	0.0618	10.82	476.0	409.52	0.0543	403.7	7.266	15.28	7.24	1.62
	117.78	31.45	66.89	0.00	0.0618	10.78	474.4	408.15	0.0539	398.5	7.173	15.09	7.05	1.62
	118.72	31.49	66.92	-0.00	0.0617	10.79	474.9	408.56	0.0538	397.9	7.161	15.06	7.03	1.62
