Jul 28 2015 at 10:04:12
Frequency: 1.00Hz.
CO2
Zero:  Value:0.95  Date:18 Mar 2005	 at 07:22:33	
Span:  Value:1.00  Date:18 Mar 2005	 at 07:25:09	
H2O
Zero:  Value:0.71  Date:18 Mar 2005	 at 07:52:31	
Span:  Value:0.99  Date:18 Mar 2005	 at 11:44:01	
	Relative Time	Temperature	Pressure	Aux Input	CO2 Absorptance	CO2 mmol/m3	CO2 mg/m3	CO2 umol/mol	H2O Absorptance	H2O mmol/m3	H2O g/m3	H2O mmol/mol	H2O(°C)	Cooler Voltage
	0.75	20.15	67.62	0.00	0.0625	10.93	480.9	394.12	0.0381	249.0	4.483	8.98	-0.14	1.54
	1.75	20.17	67.65	-0.00	0.0626	10.95	481.8	394.74	0.0392	258.4	4.652	9.32	0.37	1.54
	2.75	20.17	67.62	-0.00	0.0624	10.89	479.0	392.58	0.0395	260.0	4.681	9.38	0.45	1.54
	3.74	20.16	67.62	0.00	0.0624	10.93	481.1	394.29	0.0397	259.8	4.676	9.37	0.44	1.54
	4.73	20.18	67.62	0.00	0.0624	10.90	479.7	393.15	0.0391	259.1	4.663	9.34	0.40	1.54
	5.73	20.18	67.60	0.00	0.0625	10.88	478.9	392.68	0.0381	251.9	4.534	9.09	0.01	1.54
	6.74	20.18	67.63	0.00	0.0622	10.91	480.2	393.54	0.0390	257.2	4.629	9.27	0.30	1.54
	7.74	20.18	67.63	0.00	0.0625	10.89	479.0	392.60	0.0400	264.3	4.757	9.53	0.68	1.54
	8.75	20.18	67.62	-0.00	0.0621	10.86	477.8	391.61	0.0372	243.2	4.378	8.77	-0.47	1.54
	9.73	20.20	67.65	0.00	0.0621	10.83	476.6	390.50	0.0370	239.1	4.304	8.62	-0.70	1.53
	10.75	20.20	67.65	-0.00	0.0623	10.86	478.0	391.64	0.0381	248.1	4.465	8.94	-0.20	1.53
	11.73	20.20	67.60	0.00	0.0620	10.86	477.9	391.84	0.0384	251.7	4.531	9.08	0.01	1.54
	12.75	20.18	67.65	0.00	0.0625	10.87	478.2	391.81	0.0397	260.9	4.697	9.41	0.50	1.54
	13.73	20.21	67.63	0.00	0.0620	10.85	477.5	391.41	0.0397	265.4	4.777	9.57	0.74	1.53
	14.73	20.20	67.58	0.00	0.0624	10.87	478.1	392.15	0.0397	262.8	4.730	9.48	0.60	1.53
	15.80	20.20	67.63	0.00	0.0619	10.86	477.8	391.63	0.0410	274.1	4.933	9.88	1.18	1.53
	16.72	20.21	67.62	0.00	0.0620	10.78	474.3	388.77	0.0391	257.5	4.635	9.29	0.32	1.53
	17.74	20.22	67.60	-0.00	0.0618	10.79	474.5	389.13	0.0399	261.7	4.710	9.44	0.54	1.54
	18.72	20.20	67.60	0.00	0.0618	10.79	474.8	389.34	0.0405	269.6	4.852	9.73	0.95	1.54
	19.81	20.23	67.60	-0.00	0.0620	10.79	474.8	389.34	0.0402	268.4	4.831	9.68	0.89	1.53
	20.73	20.21	67.62	-0.00	0.0618	10.79	474.9	389.26	0.0401	268.2	4.828	9.67	0.88	1.53
	21.75	20.23	67.63	-0.00	0.0618	10.77	474.1	388.62	0.0400	264.1	4.754	9.53	0.67	1.53
	22.75	20.23	67.63	-0.00	0.0619	10.79	474.6	389.05	0.0401	267.2	4.809	9.64	0.83	1.53
	23.73	20.21	67.65	0.00	0.0619	10.78	474.4	388.69	0.0402	266.9	4.804	9.62	0.82	1.54
	24.74	20.26	67.62	-0.00	0.0617	10.78	474.5	388.99	0.0402	268.4	4.830	9.68	0.89	1.54
	25.73	20.25	67.62	0.00	0.0620	10.77	473.9	388.53	0.0398	264.3	4.757	9.53	0.68	1.53
	26.72	20.25	67.68	0.00	0.0616	10.78	474.3	388.52	0.0402	267.0	4.805	9.62	0.82	1.53
	27.72	20.25	67.63	0.00	0.0619	10.76	473.5	388.19	0.0413	274.6	4.943	9.91	1.21	1.53
	28.75	20.23	67.63	-0.00	0.0616	10.76	473.5	388.16	0.0413	276.0	4.968	9.96	1.28	1.53
	29.75	20.25	67.65	-0.00	0.0619	10.75	473.1	387.74	0.0410	275.6	4.961	9.94	1.26	1.54
	30.75	20.26	67.62	-0.00	0.0616	10.76	473.3	388.05	0.0404	269.0	4.842	9.70	0.93	1.54
	31.75	20.26	67.63	0.00	0.0619	10.76	473.2	387.98	0.0405	269.8	4.857	9.73	0.97	1.53
	32.73	20.27	67.65	-0.00	0.0615	10.75	472.9	387.56	0.0408	272.8	4.910	9.84	1.12	1.53
	33.74	20.28	67.62	0.00	0.0618	10.75	472.9	387.72	0.0410	272.6	4.907	9.83	1.11	1.53
	34.73	20.28	67.60	0.00	0.0617	10.73	472.3	387.36	0.0417	279.5	5.032	10.09	1.46	1.53
	35.74	20.28	67.62	0.00	0.0615	10.73	472.1	387.10	0.0423	285.8	5.144	10.31	1.77	1.53
	36.72	20.32	67.65	0.00	0.0617	10.71	471.4	386.43	0.0428	289.3	5.208	10.43	1.94	1.54
	37.74	20.28	67.65	0.00	0.0615	10.71	471.2	386.23	0.0431	291.6	5.249	10.52	2.05	1.53
	38.72	20.30	67.65	0.00	0.0616	10.71	471.5	386.44	0.0436	296.3	5.334	10.69	2.28	1.54
	39.73	20.30	67.63	0.00	0.0614	10.73	471.9	386.96	0.0447	308.6	5.554	11.13	2.85	1.53
	40.73	20.30	67.63	0.00	0.0617	10.71	471.1	386.29	0.0444	304.9	5.488	11.00	2.68	1.54
	41.73	20.30	67.65	0.00	0.0613	10.70	470.8	385.88	0.0450	310.5	5.588	11.20	2.93	1.54
	42.74	20.30	67.60	-0.00	0.0617	10.70	470.8	386.20	0.0451	310.9	5.597	11.22	2.95	1.53
	43.76	20.30	67.62	-0.00	0.0614	10.71	471.4	386.56	0.0460	317.5	5.716	11.46	3.25	1.53
	44.74	20.33	67.62	0.00	0.0615	10.70	470.7	385.99	0.0457	317.7	5.719	11.46	3.26	1.54
	45.74	20.32	67.62	0.00	0.0616	10.68	470.0	385.43	0.0464	319.5	5.751	11.53	3.34	1.53
	46.74	20.32	67.65	0.00	0.0612	10.68	469.7	385.02	0.0468	327.3	5.891	11.80	3.68	1.54
	47.75	20.32	67.62	-0.00	0.0616	10.67	469.6	385.07	0.0468	328.2	5.908	11.84	3.72	1.54
	48.73	20.33	67.62	0.00	0.0611	10.67	469.4	384.97	0.0464	324.3	5.837	11.70	3.55	1.53
	49.75	20.33	67.65	0.00	0.0616	10.68	470.1	385.35	0.0468	327.3	5.892	11.81	3.68	1.53
	50.75	20.33	67.65	0.00	0.0612	10.66	468.9	384.35	0.0469	330.1	5.942	11.91	3.80	1.53
	51.73	20.33	67.62	-0.00	0.0614	10.66	469.2	384.73	0.0478	334.3	6.018	12.06	3.98	1.53
	52.81	20.31	67.63	0.00	0.0613	10.67	469.3	384.78	0.0475	334.1	6.014	12.05	3.98	1.54
	53.74	20.35	67.65	-0.00	0.0612	10.66	468.9	384.39	0.0487	345.5	6.219	12.46	4.45	1.54
	54.74	20.35	67.62	0.00	0.0614	10.65	468.7	384.35	0.0475	337.1	6.068	12.16	4.10	1.54
	55.72	20.35	67.65	0.00	0.0612	10.65	468.6	384.15	0.0475	334.6	6.022	12.07	4.00	1.53
	56.74	20.35	67.62	0.00	0.0613	10.64	468.3	384.04	0.0475	335.3	6.035	12.10	4.03	1.54
	57.72	20.35	67.62	0.00	0.0612	10.66	469.1	384.74	0.0472	333.6	6.005	12.04	3.95	1.53
	58.73	20.37	67.65	0.00	0.0614	10.65	468.7	384.25	0.0476	334.4	6.020	12.06	3.99	1.54
	59.73	20.37	67.62	-0.00	0.0612	10.63	467.8	383.69	0.0479	336.1	6.049	12.13	4.06	1.54
	60.73	20.37	67.62	0.00	0.0611	10.64	468.3	384.11	0.0489	347.1	6.248	12.53	4.52	1.54
	61.74	20.37	67.62	-0.00	0.0615	10.65	468.4	384.16	0.0479	338.3	6.089	12.21	4.15	1.54
	62.76	20.37	67.62	-0.00	0.0611	10.63	467.9	383.71	0.0479	338.7	6.097	12.22	4.17	1.54
	63.74	20.37	67.65	0.00	0.0613	10.65	468.7	384.26	0.0476	335.3	6.036	12.10	4.03	1.54
	64.74	20.37	67.62	-0.00	0.0612	10.64	468.1	383.91	0.0477	337.2	6.070	12.17	4.11	1.54
	65.82	20.37	67.62	-0.00	0.0611	10.63	467.9	383.74	0.0478	336.7	6.061	12.15	4.09	1.54
	66.74	20.40	67.65	-0.00	0.0613	10.63	467.9	383.63	0.0475	335.1	6.032	12.09	4.02	1.54
	67.75	20.38	67.60	-0.00	0.0610	10.65	468.5	384.40	0.0475	334.9	6.029	12.09	4.01	1.54
	68.73	20.38	67.62	-0.00	0.0612	10.65	468.5	384.24	0.0476	333.9	6.010	12.05	3.97	1.54
	69.75	20.42	67.65	-0.00	0.0615	10.66	468.9	384.45	0.0473	333.3	6.000	12.03	3.95	1.54
	70.75	20.40	67.63	-0.00	0.0612	10.66	468.9	384.56	0.0472	332.4	5.983	11.99	3.90	1.54
	71.75	20.40	67.62	-0.00	0.0614	10.69	470.4	385.89	0.0475	333.5	6.003	12.04	3.95	1.54
	72.74	20.42	67.65	-0.00	0.0615	10.68	469.7	385.15	0.0473	333.3	6.000	12.03	3.95	1.54
	73.73	20.42	67.63	0.00	0.0611	10.67	469.4	385.00	0.0473	332.7	5.988	12.01	3.92	1.54
	74.76	20.44	67.60	-0.00	0.0615	10.66	469.1	385.00	0.0474	332.6	5.986	12.01	3.91	1.54
	75.72	20.43	67.62	0.00	0.0614	10.67	469.3	384.96	0.0473	333.4	6.000	12.03	3.95	1.54
	76.75	20.42	67.63	-0.00	0.0612	10.66	469.2	384.86	0.0473	332.8	5.991	12.01	3.93	1.54
	77.74	20.43	67.65	-0.00	0.0612	10.66	469.0	384.61	0.0475	333.6	6.005	12.04	3.96	1.54
	78.73	20.43	67.65	0.00	0.0615	10.66	469.0	384.60	0.0474	332.2	5.980	11.99	3.90	1.54
	79.73	20.42	67.62	0.00	0.0614	10.66	469.2	384.88	0.0472	331.8	5.973	11.98	3.88	1.54
	80.73	20.40	67.63	-0.00	0.0612	10.66	469.0	384.69	0.0472	331.6	5.970	11.97	3.87	1.54
	81.81	20.43	67.65	-0.00	0.0612	10.65	468.7	384.31	0.0474	332.5	5.986	12.00	3.91	1.54
	82.74	20.43	67.62	-0.00	0.0615	10.66	469.2	384.91	0.0474	332.9	5.993	12.02	3.93	1.54
	83.74	20.43	67.65	0.00	0.0612	10.66	469.0	384.63	0.0472	332.6	5.986	12.00	3.91	1.54
	84.72	20.43	67.65	0.00	0.0611	10.65	468.8	384.42	0.0477	335.7	6.042	12.11	4.05	1.54
	85.74	20.43	67.60	0.00	0.0612	10.64	468.0	384.05	0.0478	336.8	6.063	12.16	4.10	1.54
	86.74	20.43	67.65	-0.00	0.0614	10.66	469.0	384.56	0.0477	335.5	6.039	12.10	4.04	1.54
	87.75	20.42	67.65	-0.00	0.0614	10.66	469.0	384.53	0.0475	335.4	6.037	12.10	4.03	1.54
	88.73	20.43	67.62	0.00	0.0611	10.66	469.0	384.75	0.0477	337.6	6.077	12.19	4.13	1.54
	89.73	20.45	67.65	0.00	0.0611	10.65	468.8	384.40	0.0478	337.6	6.077	12.18	4.13	1.54
	90.73	20.45	67.65	0.00	0.0610	10.64	468.3	384.08	0.0480	338.2	6.088	12.20	4.15	1.54
	91.73	20.43	67.65	0.00	0.0611	10.66	469.3	384.78	0.0480	338.5	6.093	12.21	4.17	1.54
	92.74	20.45	67.65	-0.00	0.0612	10.66	468.9	384.55	0.0483	340.9	6.136	12.30	4.27	1.54
	93.74	20.45	67.60	-0.00	0.0615	10.66	469.1	384.96	0.0482	341.4	6.146	12.33	4.29	1.54
	94.74	20.45	67.62	-0.00	0.0613	10.66	469.1	384.81	0.0481	340.7	6.132	12.30	4.26	1.54
	95.74	20.48	67.65	0.00	0.0613	10.66	468.9	384.61	0.0482	340.4	6.128	12.29	4.25	1.54
	96.72	20.43	67.62	0.00	0.0614	10.64	468.2	384.05	0.0480	339.2	6.105	12.24	4.20	1.54
	97.73	20.47	67.63	0.00	0.0612	10.64	468.2	384.09	0.0480	339.1	6.104	12.24	4.19	1.54
	98.73	20.47	67.65	-0.00	0.0610	10.63	467.6	383.51	0.0481	339.5	6.111	12.25	4.21	1.54
	99.73	20.47	67.62	0.00	0.0612	10.63	467.5	383.58	0.0481	339.5	6.111	12.26	4.21	1.54
	100.81	20.47	67.65	0.00	0.0613	10.62	467.2	383.16	0.0485	343.1	6.175	12.38	4.36	1.54
	101.74	20.47	67.64	0.00	0.0613	10.62	467.4	383.36	0.0482	342.5	6.165	12.36	4.34	1.54
	102.74	20.47	67.62	0.00	0.0611	10.64	468.2	384.11	0.0480	339.2	6.105	12.24	4.20	1.54
	103.74	20.47	67.65	0.00	0.0611	10.62	467.4	383.36	0.0482	339.9	6.118	12.27	4.23	1.54
	104.74	20.49	67.65	0.00	0.0613	10.62	467.3	383.26	0.0482	339.9	6.119	12.27	4.23	1.54
	105.74	20.47	67.62	-0.00	0.0614	10.64	468.1	384.04	0.0480	339.8	6.117	12.27	4.22	1.54
	106.75	20.47	67.60	-0.00	0.0614	10.63	467.7	383.88	0.0480	337.8	6.080	12.20	4.14	1.54
	107.73	20.47	67.62	-0.00	0.0609	10.62	467.5	383.51	0.0481	341.0	6.138	12.31	4.27	1.54
	108.73	20.47	67.65	0.00	0.0609	10.61	467.0	382.99	0.0480	338.8	6.099	12.23	4.18	1.54
	109.73	20.47	67.62	-0.00	0.0612	10.61	466.9	383.06	0.0481	338.6	6.095	12.22	4.17	1.54
	110.73	20.48	67.63	0.00	0.0611	10.60	466.6	382.82	0.0480	340.4	6.127	12.29	4.25	1.54
	111.73	20.47	67.62	0.00	0.0609	10.60	466.5	382.74	0.0482	341.2	6.142	12.32	4.28	1.54
	112.76	20.48	67.63	-0.00	0.0610	10.62	467.2	383.28	0.0484	342.7	6.168	12.37	4.34	1.54
	113.74	20.48	67.62	0.00	0.0613	10.61	466.9	383.06	0.0485	343.2	6.178	12.39	4.37	1.54
	114.72	20.47	67.65	0.00	0.0611	10.61	467.0	382.95	0.0483	342.5	6.166	12.36	4.34	1.54
	115.75	20.52	67.65	-0.00	0.0610	10.61	466.8	382.90	0.0482	341.4	6.145	12.32	4.29	1.54
	116.72	20.50	67.62	0.00	0.0610	10.62	467.4	383.53	0.0484	342.2	6.159	12.35	4.32	1.54
	117.73	20.50	67.62	0.00	0.0613	10.61	466.7	382.91	0.0487	343.9	6.190	12.42	4.39	1.54
	118.73	20.52	67.63	0.00	0.0611	10.62	467.1	383.22	0.0485	345.5	6.219	12.47	4.46	1.54
	119.73	20.50	67.62	-0.00	0.0611	10.63	467.6	383.65	0.0492	348.6	6.276	12.59	4.59	1.54
	120.82	20.50	67.65	-0.00	0.0612	10.61	466.8	382.86	0.0486	344.6	6.203	12.44	4.42	1.54
