Jul 28 2015 at 10:41:39
Frequency: 1.00Hz.
CO2
Zero:  Value:0.95  Date:18 Mar 2005	 at 07:22:33	
Span:  Value:1.00  Date:18 Mar 2005	 at 07:25:09	
H2O
Zero:  Value:0.71  Date:18 Mar 2005	 at 07:52:31	
Span:  Value:0.99  Date:18 Mar 2005	 at 11:44:01	
	Relative Time	Temperature	Pressure	Aux Input	CO2 Absorptance	CO2 mmol/m3	CO2 mg/m3	CO2 umol/mol	H2O Absorptance	H2O mmol/m3	H2O g/m3	H2O mmol/mol	H2O(°C)	Cooler Voltage
	0.81	25.92	67.65	0.00	0.0629	11.05	486.2	406.18	0.0433	298.3	5.369	10.96	2.64	1.60
	1.81	25.92	67.65	0.00	0.0630	11.01	484.6	404.81	0.0447	288.0	5.184	10.59	2.15	1.60
	2.82	25.92	67.65	-0.00	0.0628	11.00	484.0	404.32	0.0482	331.6	5.969	12.19	4.14	1.59
	3.81	25.92	67.65	0.00	0.0626	10.97	482.5	403.01	0.0486	343.8	6.188	12.63	4.65	1.59
	4.80	25.92	67.65	0.00	0.0628	10.98	483.3	403.70	0.0480	338.5	6.094	12.44	4.43	1.59
	5.82	25.92	67.65	-0.00	0.0626	10.98	483.0	403.49	0.0478	336.5	6.058	12.37	4.35	1.60
	6.82	25.92	67.65	-0.00	0.0626	10.94	481.4	402.11	0.0474	332.2	5.979	12.21	4.16	1.59
	7.82	25.92	67.65	-0.00	0.0626	10.95	482.0	402.60	0.0472	331.2	5.961	12.17	4.12	1.60
	8.88	25.90	67.65	0.00	0.0625	10.95	481.7	402.31	0.0472	331.2	5.961	12.17	4.12	1.59
	9.81	25.92	67.65	-0.00	0.0625	10.94	481.3	402.04	0.0474	333.4	6.001	12.25	4.21	1.59
	10.79	25.92	67.65	-0.00	0.0626	10.92	480.4	401.31	0.0479	339.0	6.102	12.46	4.45	1.59
	11.81	25.94	67.65	0.00	0.0624	10.90	479.8	400.79	0.0481	340.0	6.121	12.50	4.50	1.60
	12.81	25.90	67.65	0.00	0.0624	10.90	479.7	400.65	0.0480	339.5	6.112	12.48	4.47	1.60
	13.88	25.88	67.65	0.00	0.0622	10.88	478.5	399.66	0.0494	349.6	6.293	12.85	4.89	1.60
	14.80	25.91	67.65	0.00	0.0621	10.86	477.8	399.09	0.0490	350.5	6.310	12.88	4.93	1.60
	15.80	25.88	67.65	0.00	0.0623	10.87	478.4	399.55	0.0489	354.6	6.382	13.03	5.09	1.59
	16.80	25.88	67.63	0.00	0.0624	10.89	479.1	400.29	0.0484	340.2	6.124	12.51	4.50	1.59
	17.89	25.88	67.63	-0.00	0.0623	10.86	477.7	399.16	0.0487	347.0	6.246	12.76	4.78	1.60
	18.80	25.87	67.68	0.00	0.0623	10.88	478.7	399.62	0.0480	340.2	6.123	12.50	4.50	1.59
	19.81	25.88	67.65	-0.00	0.0622	10.87	478.3	399.46	0.0487	347.8	6.261	12.78	4.82	1.59
	20.81	25.88	67.65	-0.00	0.0622	10.86	477.7	399.00	0.0490	348.1	6.266	12.79	4.83	1.59
	21.81	25.88	67.65	0.00	0.0622	10.86	478.0	399.23	0.0480	339.2	6.106	12.47	4.46	1.59
	22.82	25.91	67.65	-0.00	0.0621	10.85	477.6	398.93	0.0495	352.0	6.336	12.94	4.99	1.59
	23.82	25.90	67.65	-0.00	0.0621	10.84	476.8	398.29	0.0483	342.4	6.163	12.58	4.59	1.60
	24.82	25.90	67.65	0.00	0.0623	10.87	478.1	399.34	0.0487	344.0	6.192	12.64	4.66	1.59
	25.80	25.92	67.67	0.00	0.0621	10.85	477.4	398.69	0.0494	347.7	6.259	12.78	4.81	1.60
	26.89	25.92	67.65	-0.00	0.0621	10.85	477.3	398.74	0.0487	346.5	6.237	12.73	4.76	1.60
	27.80	25.92	67.70	0.00	0.0622	10.84	477.0	398.19	0.0487	343.9	6.190	12.63	4.66	1.59
	28.83	25.92	67.65	-0.00	0.0620	10.83	476.3	397.89	0.0487	346.2	6.232	12.73	4.75	1.60
	29.81	25.94	67.65	0.00	0.0620	10.82	476.3	397.88	0.0500	351.3	6.323	12.91	4.96	1.60
	30.81	25.92	67.65	0.00	0.0621	10.83	476.4	397.93	0.0496	354.7	6.384	13.04	5.10	1.59
	31.81	25.93	67.65	0.00	0.0621	10.83	476.5	398.07	0.0494	353.1	6.357	12.98	5.04	1.59
	32.82	25.96	67.68	-0.00	0.0621	10.83	476.5	397.92	0.0493	349.4	6.289	12.84	4.89	1.59
	33.80	25.97	67.65	0.00	0.0620	10.82	475.9	397.64	0.0496	355.9	6.406	13.08	5.15	1.59
	34.82	25.97	67.63	0.00	0.0620	10.81	475.6	397.48	0.0510	368.7	6.637	13.56	5.66	1.60
	35.80	25.99	67.68	0.00	0.0620	10.80	475.2	396.90	0.0496	355.3	6.395	13.06	5.13	1.60
	36.80	26.02	67.65	0.00	0.0618	10.80	475.3	397.16	0.0500	357.5	6.434	13.14	5.22	1.59
	37.83	26.01	67.67	-0.00	0.0618	10.77	474.0	395.98	0.0498	360.4	6.487	13.25	5.33	1.59
	38.80	25.99	67.68	0.00	0.0620	10.77	474.0	395.89	0.0507	365.8	6.585	13.44	5.55	1.59
	39.81	25.97	67.65	0.00	0.0616	10.77	473.7	395.76	0.0502	360.9	6.496	13.27	5.35	1.60
	40.81	25.97	67.65	-0.00	0.0619	10.77	474.0	396.02	0.0520	380.3	6.846	13.98	6.11	1.60
	41.81	25.97	67.65	0.00	0.0618	10.76	473.5	395.61	0.0520	378.7	6.817	13.92	6.05	1.60
	42.81	25.93	67.65	0.00	0.0615	10.74	472.7	394.87	0.0511	369.5	6.651	13.58	5.69	1.59
	43.82	25.88	67.65	-0.00	0.0617	10.73	472.3	394.45	0.0515	367.6	6.617	13.51	5.61	1.59
	44.82	25.83	67.65	-0.00	0.0615	10.74	472.4	394.54	0.0520	377.7	6.798	13.88	6.00	1.59
	45.82	25.81	67.65	-0.00	0.0618	10.73	472.0	394.16	0.0523	381.9	6.874	14.03	6.16	1.59
	46.80	25.80	67.65	0.00	0.0618	10.74	472.4	394.43	0.0524	381.7	6.871	14.02	6.15	1.60
	47.80	25.77	67.65	-0.00	0.0615	10.73	471.9	394.03	0.0525	383.1	6.895	14.07	6.20	1.60
	48.80	25.77	67.67	0.00	0.0617	10.73	472.0	393.99	0.0521	381.9	6.875	14.03	6.16	1.59
	49.80	25.74	67.65	0.00	0.0616	10.72	471.7	393.82	0.0521	377.7	6.799	13.88	6.00	1.59
	50.81	25.72	67.65	0.00	0.0615	10.72	471.7	393.81	0.0523	378.2	6.807	13.89	6.01	1.59
	51.82	25.74	67.65	-0.00	0.0616	10.72	471.6	393.72	0.0525	384.1	6.914	14.11	6.24	1.60
	52.81	25.76	67.65	0.00	0.0614	10.68	469.8	392.27	0.0531	389.5	7.011	14.31	6.44	1.60
	53.80	25.76	67.66	0.00	0.0613	10.69	470.4	392.69	0.0530	389.8	7.016	14.32	6.45	1.59
	54.80	25.78	67.65	-0.00	0.0615	10.69	470.4	392.77	0.0526	386.8	6.963	14.21	6.34	1.59
	55.80	25.78	67.67	0.00	0.0617	10.70	470.7	392.84	0.0538	389.2	7.005	14.29	6.43	1.59
	56.80	25.76	67.68	0.00	0.0615	10.71	471.4	393.43	0.0538	396.0	7.129	14.54	6.68	1.59
	57.83	25.75	67.68	-0.00	0.0616	10.70	470.8	392.92	0.0539	396.8	7.142	14.57	6.71	1.60
	58.83	25.72	67.65	-0.00	0.0616	10.70	470.8	393.05	0.0542	401.0	7.218	14.73	6.86	1.60
	59.81	25.72	67.65	-0.00	0.0614	10.70	470.9	393.05	0.0540	398.8	7.178	14.65	6.78	1.60
	60.82	25.69	67.68	-0.00	0.0614	10.70	470.9	392.94	0.0537	397.2	7.149	14.58	6.72	1.59
	61.79	25.67	67.65	0.00	0.0616	10.68	470.1	392.35	0.0533	391.0	7.039	14.36	6.50	1.59
	62.82	25.68	67.65	-0.00	0.0614	10.70	471.0	393.13	0.0531	389.0	7.002	14.29	6.42	1.59
	63.80	25.72	67.68	0.00	0.0614	10.69	470.4	392.55	0.0540	397.7	7.158	14.60	6.74	1.60
	64.80	25.72	67.65	0.00	0.0616	10.68	470.0	392.36	0.0538	399.0	7.181	14.65	6.79	1.60
	65.82	25.74	67.65	-0.00	0.0615	10.68	469.9	392.27	0.0538	396.7	7.140	14.57	6.71	1.60
	66.80	25.72	67.62	0.00	0.0612	10.66	469.0	391.70	0.0537	396.3	7.133	14.56	6.69	1.59
	67.80	25.74	67.68	0.00	0.0615	10.67	469.6	391.86	0.0545	404.2	7.276	14.84	6.98	1.59
	68.80	25.70	67.65	0.00	0.0615	10.68	469.7	392.09	0.0538	404.6	7.283	14.86	6.99	1.59
	69.81	25.76	67.65	0.00	0.0613	10.67	469.5	391.97	0.0543	402.7	7.249	14.79	6.93	1.60
	70.82	25.78	67.65	-0.00	0.0613	10.67	469.7	392.14	0.0544	406.6	7.318	14.94	7.07	1.60
	71.82	25.79	67.68	-0.00	0.0615	10.66	469.2	391.63	0.0554	412.3	7.421	15.14	7.27	1.59
	72.82	25.83	67.65	0.00	0.0614	10.68	470.0	392.49	0.0552	409.3	7.368	15.04	7.17	1.59
	73.82	25.85	67.65	-0.00	0.0611	10.65	468.5	391.30	0.0555	413.2	7.437	15.18	7.31	1.59
	74.82	25.91	67.65	-0.00	0.0614	10.65	468.7	391.51	0.0549	405.7	7.302	14.91	7.04	1.59
	75.80	25.90	67.65	0.00	0.0614	10.67	469.4	392.07	0.0549	407.4	7.332	14.97	7.10	1.60
	76.81	25.94	67.65	-0.00	0.0611	10.67	469.3	392.11	0.0549	408.8	7.359	15.03	7.16	1.60
	77.88	25.92	67.68	0.00	0.0613	10.62	467.3	390.21	0.0562	419.9	7.558	15.43	7.55	1.59
	78.81	25.94	67.68	-0.00	0.0611	10.64	468.2	391.01	0.0544	411.8	7.413	15.13	7.26	1.59
	79.81	25.97	67.65	-0.00	0.0613	10.65	468.4	391.35	0.0543	401.2	7.222	14.75	6.88	1.59
	80.79	25.93	67.65	0.00	0.0611	10.63	467.9	390.82	0.0553	411.5	7.407	15.13	7.25	1.60
	81.81	25.93	67.68	0.00	0.0613	10.65	468.4	391.14	0.0561	410.1	7.381	15.07	7.20	1.60
	82.79	25.98	67.68	0.00	0.0612	10.62	467.4	390.38	0.0568	425.2	7.654	15.63	7.73	1.60
	83.80	25.97	67.66	0.00	0.0611	10.61	466.7	389.87	0.0570	430.9	7.756	15.84	7.93	1.59
	84.80	25.97	67.65	0.00	0.0612	10.61	467.0	390.13	0.0560	427.2	7.689	15.70	7.80	1.60
	85.82	26.00	67.65	0.00	0.0612	10.61	467.0	390.18	0.0560	416.3	7.494	15.31	7.42	1.59
	86.81	25.99	67.68	-0.00	0.0610	10.60	466.5	389.60	0.0552	414.8	7.467	15.25	7.37	1.59
	87.81	25.99	67.68	0.00	0.0611	10.60	466.4	389.54	0.0548	408.1	7.346	15.00	7.13	1.59
	88.81	26.03	67.67	-0.00	0.0610	10.62	467.1	390.21	0.0562	412.0	7.416	15.14	7.27	1.60
	89.81	25.99	67.65	-0.00	0.0610	10.60	466.6	389.86	0.0571	431.8	7.773	15.88	7.96	1.59
	90.81	25.99	67.65	0.00	0.0610	10.59	466.2	389.52	0.0554	410.5	7.389	15.09	7.22	1.59
	91.79	26.03	67.65	0.00	0.0609	10.57	465.1	388.63	0.0557	417.8	7.520	15.36	7.48	1.60
	92.81	26.03	67.65	0.00	0.0610	10.58	465.4	388.89	0.0565	426.4	7.675	15.68	7.78	1.59
	93.88	26.03	67.65	0.00	0.0610	10.58	465.5	388.99	0.0564	422.8	7.611	15.55	7.65	1.59
	94.82	26.05	67.67	-0.00	0.0610	10.58	465.7	389.02	0.0561	422.0	7.596	15.51	7.63	1.60
	95.80	26.05	67.65	-0.00	0.0608	10.57	464.9	388.53	0.0566	429.9	7.739	15.81	7.90	1.59
	96.83	26.07	67.65	-0.00	0.0610	10.56	464.8	388.43	0.0566	429.5	7.731	15.79	7.89	1.59
	97.89	26.07	67.65	-0.00	0.0609	10.56	464.8	388.43	0.0572	435.8	7.845	16.03	8.10	1.60
	98.83	26.08	67.65	-0.00	0.0608	10.56	464.7	388.36	0.0576	439.0	7.901	16.14	8.21	1.60
	99.83	26.08	67.68	-0.00	0.0609	10.56	464.4	388.03	0.0574	432.0	7.776	15.88	7.97	1.60
	100.81	26.08	67.67	-0.00	0.0607	10.55	464.3	387.93	0.0578	438.8	7.898	16.13	8.20	1.60
	101.82	26.11	67.65	-0.00	0.0609	10.55	464.4	388.14	0.0578	438.7	7.897	16.14	8.20	1.59
	102.80	26.08	67.65	-0.00	0.0608	10.55	464.0	387.81	0.0587	445.2	8.014	16.37	8.41	1.59
	103.82	26.07	67.65	-0.00	0.0608	10.55	464.4	388.13	0.0572	431.8	7.773	15.88	7.96	1.60
	104.80	26.03	67.63	0.00	0.0609	10.54	463.8	387.66	0.0579	437.6	7.876	16.09	8.16	1.60
	105.80	26.05	67.68	0.00	0.0607	10.53	463.5	387.17	0.0576	433.4	7.801	15.93	8.02	1.60
	106.80	26.07	67.65	0.00	0.0608	10.53	463.4	387.26	0.0592	448.6	8.074	16.50	8.52	1.59
	107.80	26.07	67.68	0.00	0.0605	10.52	462.9	386.70	0.0582	448.5	8.074	16.49	8.52	1.59
	108.83	26.08	67.65	-0.00	0.0610	10.54	463.6	387.51	0.0584	448.8	8.079	16.51	8.53	1.59
	109.81	26.08	67.65	-0.00	0.0607	10.53	463.3	387.25	0.0594	456.5	8.216	16.79	8.78	1.60
	110.81	26.10	67.68	0.00	0.0608	10.54	463.7	387.43	0.0595	454.4	8.179	16.70	8.72	1.60
	111.81	26.12	67.65	0.00	0.0608	10.53	463.2	387.15	0.0603	462.4	8.323	17.00	8.98	1.59
	112.82	26.10	67.65	-0.00	0.0606	10.51	462.3	386.45	0.0599	455.6	8.200	16.75	8.75	1.59
	113.82	26.08	67.67	-0.00	0.0607	10.52	462.7	386.56	0.0603	467.3	8.411	17.18	9.13	1.59
	114.78	26.10	67.70	0.00	0.0606	10.51	462.4	386.27	0.0604	468.6	8.435	17.22	9.17	1.60
	115.81	26.08	67.65	-0.00	0.0607	10.51	462.3	386.40	0.0591	449.8	8.096	16.54	8.56	1.60
	116.80	26.10	67.68	0.00	0.0606	10.51	462.3	386.30	0.0581	447.1	8.047	16.44	8.48	1.60
	117.81	26.10	67.67	0.00	0.0605	10.47	460.7	384.93	0.0588	452.7	8.149	16.64	8.66	1.60
	118.79	26.10	67.65	0.00	0.0604	10.47	460.5	384.91	0.0591	453.4	8.161	16.67	8.68	1.60
	119.81	26.12	67.65	0.00	0.0603	10.44	459.5	384.12	0.0593	454.6	8.184	16.72	8.73	1.60
