Jul 28 2015 at 14:28:34
Frequency: 1.00Hz.
CO2
Zero:  Value:0.95  Date:18 Mar 2005	 at 07:22:33	
Span:  Value:1.00  Date:18 Mar 2005	 at 07:25:09	
H2O
Zero:  Value:0.71  Date:18 Mar 2005	 at 07:52:31	
Span:  Value:0.99  Date:18 Mar 2005	 at 11:44:01	
	Relative Time	Temperature	Pressure	Aux Input	CO2 Absorptance	CO2 mmol/m3	CO2 mg/m3	CO2 umol/mol	H2O Absorptance	H2O mmol/m3	H2O g/m3	H2O mmol/mol	H2O(°C)	Cooler Voltage
	0.19	32.80	67.73	0.00	0.0627	10.95	481.8	411.27	0.0393	259.9	4.677	9.76	1.03	1.63
	1.20	32.79	67.73	0.00	0.0627	10.99	483.8	412.91	0.0392	258.5	4.654	9.71	0.96	1.63
	2.20	32.83	67.75	-0.00	0.0624	10.94	481.4	410.78	0.0393	259.3	4.667	9.74	1.00	1.63
	3.20	32.82	67.73	0.00	0.0623	10.85	477.5	407.60	0.0395	260.7	4.693	9.79	1.07	1.63
	4.20	32.90	67.75	0.00	0.0625	10.93	480.8	410.40	0.0406	273.4	4.921	10.27	1.74	1.63
	5.23	32.88	67.73	-0.00	0.0623	10.90	479.5	409.39	0.0416	278.4	5.011	10.46	1.99	1.63
	6.21	32.83	67.73	-0.00	0.0623	10.88	478.7	408.63	0.0416	287.7	5.178	10.81	2.45	1.63
	7.21	32.87	67.70	0.00	0.0621	10.84	477.1	407.48	0.0418	280.4	5.048	10.54	2.09	1.63
	8.21	32.85	67.73	0.00	0.0620	10.80	475.3	405.80	0.0435	295.3	5.315	11.09	2.82	1.63
	9.20	32.88	67.75	0.00	0.0620	10.81	475.7	406.01	0.0438	301.9	5.435	11.34	3.13	1.63
	10.30	32.85	67.75	-0.00	0.0621	10.84	477.1	407.15	0.0449	307.9	5.543	11.56	3.41	1.63
	11.20	32.82	67.73	0.00	0.0620	10.82	476.1	406.41	0.0450	310.8	5.594	11.67	3.54	1.63
	12.20	32.82	67.73	0.00	0.0617	10.76	473.4	404.09	0.0446	305.1	5.492	11.46	3.28	1.63
	13.20	32.86	67.73	0.00	0.0620	10.79	475.0	405.49	0.0452	311.5	5.606	11.70	3.57	1.63
	14.21	32.86	67.73	0.00	0.0623	10.89	479.0	408.95	0.0471	330.3	5.946	12.41	4.41	1.63
	15.20	32.86	67.70	0.00	0.0623	10.87	478.2	408.44	0.0474	334.2	6.015	12.56	4.57	1.63
	16.21	32.86	67.73	0.00	0.0623	10.88	478.5	408.52	0.0477	336.9	6.064	12.66	4.69	1.63
	17.19	32.81	67.73	0.00	0.0623	10.86	478.1	408.07	0.0489	346.3	6.233	13.00	5.08	1.63
	18.22	32.79	67.72	-0.00	0.0621	10.85	477.4	407.48	0.0486	342.6	6.166	12.87	4.93	1.63
	19.22	32.79	67.75	-0.00	0.0622	10.86	478.0	407.80	0.0474	333.8	6.009	12.53	4.56	1.63
	20.23	32.77	67.73	-0.00	0.0621	10.86	477.7	407.73	0.0483	340.7	6.133	12.79	4.85	1.63
	21.22	32.80	67.73	0.00	0.0621	10.85	477.2	407.34	0.0482	340.4	6.127	12.78	4.83	1.63
	22.23	32.77	67.75	-0.00	0.0624	10.88	478.8	408.48	0.0487	341.9	6.154	12.83	4.90	1.63
	23.21	32.77	67.73	-0.00	0.0624	10.89	479.3	409.06	0.0485	343.6	6.186	12.90	4.97	1.63
	24.23	32.75	67.73	-0.00	0.0624	10.89	479.0	408.80	0.0486	346.9	6.244	13.03	5.10	1.63
	25.21	32.77	67.72	-0.00	0.0622	10.88	478.6	408.54	0.0471	337.1	6.067	12.66	4.69	1.63
	26.22	32.77	67.75	-0.00	0.0622	10.84	476.9	406.88	0.0466	316.0	5.687	11.86	3.77	1.63
	27.21	32.73	67.73	0.00	0.0622	10.85	477.6	407.54	0.0466	329.8	5.937	12.38	4.38	1.63
	28.20	32.77	67.72	0.00	0.0622	10.84	476.9	407.02	0.0483	328.1	5.906	12.32	4.31	1.63
	29.20	32.79	67.73	0.00	0.0622	10.86	478.0	407.97	0.0488	352.5	6.344	13.24	5.33	1.63
	30.20	32.81	67.73	0.00	0.0622	10.87	478.2	408.22	0.0492	350.5	6.310	13.17	5.26	1.63
	31.20	32.84	67.73	0.00	0.0621	10.83	476.4	406.72	0.0484	340.9	6.136	12.80	4.86	1.63
	32.20	32.81	67.72	0.00	0.0621	10.84	477.2	407.33	0.0499	358.4	6.451	13.46	5.58	1.63
	33.21	32.80	67.75	-0.00	0.0620	10.82	476.2	406.37	0.0499	357.5	6.434	13.42	5.54	1.63
	34.21	32.83	67.73	-0.00	0.0620	10.83	476.4	406.64	0.0500	359.4	6.468	13.50	5.62	1.63
	35.19	32.82	67.75	0.00	0.0621	10.82	476.2	406.31	0.0500	353.5	6.363	13.27	5.38	1.63
	36.27	32.87	67.75	0.00	0.0621	10.82	476.1	406.37	0.0489	349.1	6.283	13.11	5.20	1.63
	37.22	32.88	67.70	-0.00	0.0622	10.84	477.0	407.41	0.0505	365.6	6.580	13.74	5.86	1.63
	38.22	32.83	67.72	-0.00	0.0621	10.83	476.3	406.64	0.0489	349.2	6.286	13.12	5.21	1.63
	39.22	32.83	67.72	-0.00	0.0621	10.84	476.8	407.02	0.0502	364.5	6.560	13.69	5.82	1.63
	40.22	32.79	67.73	0.00	0.0620	10.81	475.7	406.01	0.0496	350.3	6.305	13.16	5.25	1.63
	41.20	32.81	67.75	0.00	0.0621	10.82	476.2	406.36	0.0503	361.5	6.507	13.57	5.70	1.63
	42.21	32.78	67.73	0.00	0.0620	10.81	475.6	405.89	0.0492	351.1	6.321	13.19	5.28	1.63
	43.21	32.82	67.70	-0.00	0.0621	10.85	477.5	407.73	0.0522	389.1	7.003	14.62	6.77	1.63
	44.21	32.82	67.75	0.00	0.0622	10.84	477.2	407.19	0.0533	392.5	7.065	14.74	6.89	1.63
	45.21	32.82	67.73	-0.00	0.0621	10.83	476.5	406.77	0.0526	381.0	6.857	14.31	6.46	1.63
	46.21	32.81	67.75	0.00	0.0621	10.84	477.2	407.17	0.0530	392.3	7.061	14.73	6.88	1.63
	47.21	32.82	67.75	-0.00	0.0620	10.81	475.4	405.72	0.0514	371.2	6.681	13.94	6.08	1.63
	48.22	32.79	67.73	-0.00	0.0620	10.81	475.8	406.11	0.0515	372.4	6.702	13.98	6.13	1.63
	49.19	32.77	67.73	0.00	0.0620	10.80	475.3	405.70	0.0509	368.6	6.635	13.84	5.98	1.63
	50.22	32.77	67.73	-0.00	0.0621	10.85	477.5	407.53	0.0528	394.7	7.105	14.82	6.97	1.63
	51.20	32.74	67.70	0.00	0.0620	10.80	475.3	405.77	0.0514	370.7	6.672	13.92	6.06	1.63
	52.21	32.77	67.73	0.00	0.0619	10.80	475.1	405.46	0.0513	369.6	6.652	13.88	6.02	1.63
	53.21	32.76	67.72	-0.00	0.0620	10.80	475.1	405.54	0.0518	372.5	6.705	13.99	6.13	1.63
	54.20	32.75	67.72	0.00	0.0620	10.81	475.6	405.92	0.0521	378.4	6.811	14.21	6.36	1.63
	55.21	32.79	67.70	0.00	0.0620	10.81	475.4	405.97	0.0522	381.2	6.861	14.32	6.47	1.63
	56.19	32.76	67.75	0.00	0.0620	10.81	475.6	405.76	0.0522	381.7	6.871	14.33	6.49	1.63
	57.21	32.75	67.73	-0.00	0.0620	10.80	475.4	405.70	0.0522	379.7	6.835	14.26	6.41	1.63
	58.20	32.80	67.70	0.00	0.0620	10.81	475.5	405.99	0.0522	380.4	6.847	14.29	6.44	1.63
	59.22	32.79	67.75	0.00	0.0620	10.81	475.8	406.02	0.0528	388.5	6.994	14.59	6.74	1.63
	60.22	32.75	67.73	-0.00	0.0619	10.79	474.9	405.28	0.0523	380.2	6.844	14.28	6.43	1.63
	61.29	32.79	67.73	-0.00	0.0621	10.82	476.2	406.42	0.0544	396.8	7.142	14.90	7.05	1.63
	62.20	32.80	67.73	0.00	0.0620	10.82	475.9	406.22	0.0537	394.1	7.094	14.80	6.95	1.63
	63.20	32.81	67.73	0.00	0.0619	10.79	474.9	405.36	0.0528	384.1	6.913	14.42	6.58	1.63
	64.19	32.81	67.73	0.00	0.0620	10.81	475.4	405.83	0.0532	390.9	7.036	14.68	6.83	1.63
	65.21	32.83	67.75	-0.00	0.0621	10.80	475.1	405.42	0.0541	393.9	7.090	14.79	6.95	1.63
	66.21	32.81	67.73	0.00	0.0620	10.83	476.6	406.87	0.0540	402.4	7.243	15.11	7.26	1.63
	67.20	32.84	67.73	0.00	0.0620	10.81	475.6	406.05	0.0540	396.5	7.136	14.89	7.04	1.63
	68.22	32.84	67.70	-0.00	0.0621	10.81	475.5	406.07	0.0544	397.6	7.157	14.94	7.08	1.63
	69.20	32.81	67.73	0.00	0.0620	10.82	476.2	406.50	0.0542	402.4	7.243	15.11	7.26	1.63
	70.28	32.79	67.72	0.00	0.0620	10.82	476.2	406.44	0.0543	402.6	7.247	15.12	7.26	1.63
	71.22	32.82	67.70	-0.00	0.0620	10.80	475.3	405.89	0.0540	399.5	7.190	15.01	7.15	1.63
	72.21	32.81	67.70	0.00	0.0620	10.80	475.2	405.78	0.0544	401.4	7.225	15.08	7.22	1.63
	73.20	32.83	67.73	0.00	0.0620	10.80	475.4	405.79	0.0541	401.3	7.224	15.07	7.22	1.63
	74.21	32.85	67.72	0.00	0.0620	10.80	475.3	405.76	0.0541	399.8	7.196	15.02	7.16	1.63
	75.19	32.87	67.75	0.00	0.0620	10.79	474.8	405.26	0.0544	398.9	7.180	14.98	7.13	1.63
	76.21	32.89	67.73	0.00	0.0621	10.83	476.6	406.95	0.0556	414.3	7.457	15.56	7.69	1.63
	77.19	32.89	67.70	0.00	0.0620	10.82	476.0	406.54	0.0548	408.6	7.355	15.36	7.48	1.63
	78.20	32.90	67.73	0.00	0.0620	10.80	475.4	405.93	0.0542	402.0	7.235	15.10	7.25	1.63
	79.20	32.87	67.78	-0.00	0.0619	10.79	474.8	405.10	0.0541	400.1	7.201	15.02	7.17	1.63
	80.20	32.90	67.72	0.00	0.0619	10.79	475.0	405.58	0.0541	399.8	7.196	15.02	7.17	1.63
	81.21	32.85	67.70	0.00	0.0621	10.82	476.2	406.66	0.0561	410.2	7.383	15.41	7.54	1.63
	82.23	32.83	67.70	-0.00	0.0622	10.85	477.6	407.87	0.0571	432.5	7.785	16.25	8.32	1.63
	83.19	32.85	67.70	0.00	0.0621	10.84	477.0	407.38	0.0565	427.7	7.699	16.07	8.15	1.63
	84.22	32.88	67.72	-0.00	0.0620	10.82	476.1	406.54	0.0564	421.5	7.586	15.83	7.94	1.63
	85.21	32.87	67.70	-0.00	0.0621	10.84	476.8	407.26	0.0565	425.8	7.665	16.00	8.09	1.63
	86.21	32.87	67.73	0.00	0.0619	10.79	474.7	405.23	0.0551	412.0	7.415	15.47	7.60	1.63
	87.19	32.87	67.73	0.00	0.0619	10.79	474.7	405.24	0.0556	413.6	7.444	15.54	7.66	1.63
	88.22	32.83	67.70	-0.00	0.0621	10.83	476.7	407.07	0.0561	423.3	7.619	15.90	8.00	1.63
	89.20	32.82	67.72	-0.00	0.0620	10.81	475.6	406.02	0.0549	410.7	7.392	15.42	7.55	1.63
	90.20	32.86	67.73	0.00	0.0619	10.79	474.7	405.26	0.0545	404.0	7.272	15.17	7.32	1.63
	91.20	32.85	67.72	0.00	0.0619	10.78	474.4	404.99	0.0545	403.6	7.266	15.16	7.30	1.63
	92.20	32.85	67.72	0.00	0.0620	10.80	475.2	405.74	0.0549	404.1	7.274	15.18	7.32	1.63
	93.19	32.88	67.73	0.00	0.0619	10.79	474.7	405.31	0.0548	409.1	7.364	15.37	7.50	1.63
	94.19	32.87	67.68	0.00	0.0619	10.78	474.1	405.09	0.0548	407.5	7.336	15.32	7.45	1.63
	95.21	32.87	67.70	0.00	0.0620	10.81	475.4	406.06	0.0552	412.3	7.421	15.49	7.62	1.63
	96.21	32.90	67.73	0.00	0.0623	10.89	479.0	408.97	0.0579	444.9	8.008	16.71	8.74	1.63
	97.22	32.83	67.70	-0.00	0.0621	10.82	476.2	406.70	0.0570	430.3	7.746	16.17	8.24	1.63
	98.22	32.83	67.73	0.00	0.0621	10.85	477.2	407.33	0.0572	433.7	7.806	16.29	8.36	1.63
	99.22	32.82	67.70	-0.00	0.0620	10.82	476.0	406.48	0.0578	436.3	7.853	16.39	8.44	1.64
	100.20	32.80	67.68	0.00	0.0621	10.81	475.8	406.45	0.0577	439.5	7.911	16.52	8.55	1.64
	101.20	32.83	67.70	0.00	0.0621	10.83	476.5	406.93	0.0577	438.9	7.900	16.49	8.53	1.63
	102.21	32.85	67.72	-0.00	0.0621	10.82	476.3	406.61	0.0583	441.5	7.947	16.58	8.62	1.63
	103.19	32.83	67.72	0.00	0.0623	10.88	478.6	408.56	0.0584	447.7	8.059	16.82	8.83	1.63
	104.21	32.83	67.72	-0.00	0.0623	10.87	478.1	408.18	0.0594	455.7	8.203	17.12	9.09	1.63
	105.19	32.83	67.70	0.00	0.0622	10.86	477.8	408.03	0.0598	462.2	8.319	17.37	9.30	1.64
	106.21	32.83	67.72	-0.00	0.0620	10.80	475.2	405.67	0.0585	443.7	7.986	16.66	8.69	1.64
	107.22	32.83	67.72	-0.00	0.0622	10.86	477.8	407.90	0.0602	463.1	8.336	17.40	9.33	1.64
	108.22	32.85	67.73	0.00	0.0622	10.85	477.6	407.70	0.0601	469.1	8.443	17.62	9.52	1.63
	109.22	32.85	67.73	-0.00	0.0621	10.85	477.2	407.38	0.0597	465.2	8.373	17.47	9.40	1.63
	110.22	32.83	67.70	-0.00	0.0622	10.84	477.1	407.46	0.0597	462.5	8.326	17.38	9.31	1.63
	111.21	32.83	67.70	-0.00	0.0622	10.86	477.7	407.94	0.0601	468.3	8.429	17.60	9.49	1.64
	112.21	32.86	67.72	0.00	0.0622	10.84	476.8	407.05	0.0602	463.1	8.335	17.40	9.33	1.64
	113.19	32.85	67.73	0.00	0.0622	10.85	477.5	407.62	0.0601	461.9	8.314	17.35	9.29	1.64
	114.22	32.87	67.70	-0.00	0.0622	10.85	477.5	407.80	0.0596	459.4	8.269	17.26	9.21	1.64
	115.21	32.91	67.70	-0.00	0.0621	10.83	476.7	407.24	0.0602	463.6	8.345	17.43	9.35	1.64
	116.22	32.91	67.70	-0.00	0.0622	10.85	477.5	407.91	0.0602	463.0	8.334	17.40	9.33	1.64
	117.20	32.91	67.70	0.00	0.0621	10.85	477.3	407.70	0.0599	462.8	8.330	17.39	9.32	1.64
	118.20	32.94	67.70	0.00	0.0622	10.85	477.5	407.94	0.0604	467.6	8.417	17.58	9.48	1.64
	119.19	32.94	67.70	0.00	0.0622	10.86	477.8	408.21	0.0603	466.8	8.403	17.55	9.45	1.64
	120.20	32.89	67.70	0.00	0.0621	10.83	476.7	407.14	0.0602	466.0	8.388	17.51	9.42	1.64
	121.26	32.89	67.70	0.00	0.0621	10.83	476.7	407.12	0.0598	459.9	8.279	17.28	9.23	1.64
	122.21	32.89	67.70	0.00	0.0621	10.83	476.3	406.84	0.0599	460.8	8.294	17.32	9.26	1.64
	123.21	32.90	67.75	0.00	0.0620	10.81	475.5	405.84	0.0602	464.0	8.351	17.43	9.36	1.64
