Jul 28 2015 at 10:38:39
Frequency: 1.00Hz.
CO2
Zero:  Value:0.95  Date:18 Mar 2005	 at 07:22:33	
Span:  Value:1.00  Date:18 Mar 2005	 at 07:25:09	
H2O
Zero:  Value:0.71  Date:18 Mar 2005	 at 07:52:31	
Span:  Value:0.99  Date:18 Mar 2005	 at 11:44:01	
	Relative Time	Temperature	Pressure	Aux Input	CO2 Absorptance	CO2 mmol/m3	CO2 mg/m3	CO2 umol/mol	H2O Absorptance	H2O mmol/m3	H2O g/m3	H2O mmol/mol	H2O(°C)	Cooler Voltage
	0.80	25.54	67.66	0.00	0.0615	10.68	470.1	392.15	0.0449	313.8	5.648	11.52	3.33	1.60
	1.81	25.54	67.65	-0.00	0.0615	10.70	470.6	392.59	0.0449	309.1	5.564	11.35	3.12	1.60
	2.81	25.52	67.65	-0.00	0.0615	10.71	471.0	392.93	0.0454	314.6	5.664	11.55	3.37	1.60
	3.81	25.52	67.65	0.00	0.0614	10.65	468.5	390.87	0.0447	307.1	5.528	11.27	3.03	1.60
	4.82	25.52	67.65	0.00	0.0614	10.68	469.8	391.92	0.0449	309.6	5.573	11.37	3.15	1.60
	5.82	25.52	67.68	-0.00	0.0614	10.65	468.8	390.93	0.0451	309.9	5.579	11.37	3.16	1.60
	6.80	25.51	67.65	0.00	0.0613	10.66	468.9	391.18	0.0451	312.2	5.620	11.46	3.26	1.60
	7.82	25.52	67.65	-0.00	0.0613	10.65	468.7	391.04	0.0452	311.9	5.614	11.45	3.25	1.60
	8.81	25.53	67.65	-0.00	0.0612	10.65	468.4	390.76	0.0460	317.7	5.718	11.66	3.51	1.60
	9.81	25.52	67.65	0.00	0.0611	10.65	468.6	390.95	0.0463	322.9	5.812	11.85	3.74	1.60
	10.81	25.52	67.65	-0.00	0.0611	10.63	467.8	390.28	0.0467	326.4	5.875	11.98	3.89	1.60
	11.81	25.52	67.65	-0.00	0.0611	10.60	466.5	389.15	0.0469	326.6	5.878	11.99	3.90	1.60
	12.81	25.52	67.68	-0.00	0.0611	10.59	466.1	388.71	0.0483	336.4	6.055	12.34	4.32	1.60
	13.82	25.52	67.68	0.00	0.0610	10.58	465.3	388.01	0.0481	338.7	6.097	12.43	4.42	1.60
	14.82	25.52	67.65	-0.00	0.0608	10.55	464.4	387.38	0.0485	341.2	6.141	12.52	4.52	1.60
	15.82	25.52	67.65	-0.00	0.0609	10.58	465.3	388.20	0.0483	343.5	6.182	12.61	4.62	1.60
	16.82	25.52	67.65	-0.00	0.0609	10.58	465.3	388.19	0.0478	339.6	6.113	12.47	4.46	1.60
	17.80	25.54	67.65	0.00	0.0608	10.56	464.8	387.74	0.0485	342.4	6.163	12.57	4.57	1.60
	18.81	25.52	67.70	0.00	0.0608	10.56	464.8	387.44	0.0490	347.1	6.247	12.73	4.77	1.60
	19.80	25.54	67.67	-0.00	0.0609	10.55	464.0	386.98	0.0486	345.5	6.219	12.68	4.70	1.60
	20.81	25.54	67.65	0.00	0.0610	10.58	465.4	388.25	0.0482	341.8	6.152	12.55	4.55	1.60
	21.79	25.54	67.65	0.00	0.0609	10.56	464.5	387.52	0.0481	340.1	6.122	12.48	4.48	1.60
	22.79	25.54	67.60	0.00	0.0608	10.56	464.4	387.78	0.0481	339.6	6.113	12.48	4.46	1.60
	23.80	25.54	67.65	-0.00	0.0608	10.54	463.7	386.88	0.0485	345.0	6.210	12.66	4.68	1.60
	24.79	25.55	67.68	0.00	0.0609	10.55	464.1	387.03	0.0486	344.5	6.201	12.64	4.66	1.60
	25.82	25.56	67.68	0.00	0.0609	10.55	464.0	387.00	0.0488	347.4	6.253	12.75	4.78	1.60
	26.80	25.54	67.67	0.00	0.0607	10.53	463.1	386.24	0.0488	346.1	6.230	12.70	4.73	1.60
	27.82	25.58	67.65	-0.00	0.0607	10.51	462.4	385.84	0.0492	351.1	6.320	12.89	4.94	1.60
	28.81	25.56	67.65	-0.00	0.0608	10.54	463.6	386.78	0.0496	353.1	6.355	12.96	5.02	1.60
	29.81	25.58	67.65	0.00	0.0608	10.53	463.2	386.49	0.0494	353.6	6.364	12.98	5.04	1.60
	30.79	25.58	67.70	0.00	0.0609	10.53	463.5	386.41	0.0494	352.0	6.336	12.91	4.97	1.60
	31.81	25.56	67.65	0.00	0.0608	10.54	463.7	386.87	0.0491	348.9	6.281	12.81	4.85	1.60
	32.81	25.56	67.65	-0.00	0.0608	10.54	463.8	386.96	0.0493	350.7	6.313	12.88	4.92	1.60
	33.80	25.57	67.65	0.00	0.0607	10.53	463.4	386.60	0.0493	351.0	6.317	12.88	4.93	1.60
	34.80	25.57	67.68	0.00	0.0606	10.53	463.3	386.41	0.0493	352.0	6.335	12.92	4.97	1.60
	35.80	25.58	67.65	0.00	0.0607	10.52	463.0	386.33	0.0494	352.8	6.350	12.95	5.01	1.60
	36.82	25.58	67.65	-0.00	0.0607	10.53	463.2	386.48	0.0489	349.8	6.297	12.84	4.88	1.60
	37.80	25.58	67.68	0.00	0.0607	10.52	462.7	385.94	0.0492	349.4	6.290	12.82	4.87	1.60
	38.81	25.56	67.67	-0.00	0.0607	10.51	462.5	385.76	0.0492	349.2	6.286	12.82	4.86	1.60
	39.80	25.58	67.65	0.00	0.0607	10.51	462.4	385.78	0.0492	350.0	6.299	12.85	4.89	1.60
	40.79	25.58	67.68	0.00	0.0607	10.51	462.5	385.73	0.0491	350.7	6.313	12.87	4.92	1.60
	41.81	25.57	67.65	0.00	0.0605	10.48	461.3	384.86	0.0499	355.8	6.404	13.06	5.13	1.60
	42.82	25.59	67.65	0.00	0.0603	10.46	460.1	383.94	0.0507	368.7	6.637	13.54	5.64	1.60
	43.80	25.59	67.68	0.00	0.0604	10.46	460.3	383.93	0.0511	368.6	6.635	13.53	5.64	1.60
	44.82	25.62	67.65	-0.00	0.0603	10.44	459.2	383.16	0.0513	370.3	6.666	13.60	5.70	1.60
	45.80	25.61	67.65	0.00	0.0603	10.43	458.7	382.80	0.0512	370.0	6.660	13.58	5.69	1.60
	46.78	25.60	67.65	0.00	0.0603	10.42	458.4	382.52	0.0514	372.2	6.700	13.67	5.78	1.60
	47.80	25.61	67.65	0.00	0.0603	10.40	457.7	381.95	0.0519	373.6	6.724	13.72	5.83	1.60
	48.88	25.61	67.65	0.00	0.0604	10.43	459.1	383.08	0.0520	375.8	6.765	13.80	5.92	1.60
	49.81	25.61	67.68	0.00	0.0604	10.44	459.4	383.24	0.0526	384.6	6.922	14.11	6.25	1.60
	50.81	25.61	67.65	-0.00	0.0603	10.43	458.9	382.97	0.0518	377.0	6.786	13.84	5.96	1.60
	51.82	25.61	67.65	-0.00	0.0603	10.43	458.9	382.96	0.0515	373.2	6.717	13.70	5.82	1.59
	52.81	25.60	67.68	0.00	0.0602	10.43	458.9	382.82	0.0522	378.8	6.818	13.90	6.03	1.60
	53.80	25.60	67.65	-0.00	0.0603	10.45	459.7	383.60	0.0521	378.5	6.813	13.90	6.02	1.60
	54.82	25.60	67.63	-0.00	0.0603	10.42	458.5	382.73	0.0518	376.6	6.780	13.83	5.95	1.60
	55.80	25.60	67.65	-0.00	0.0603	10.45	459.7	383.60	0.0517	375.7	6.762	13.79	5.91	1.59
	56.81	25.61	67.65	-0.00	0.0603	10.43	459.1	383.13	0.0520	378.5	6.813	13.90	6.02	1.60
	57.80	25.61	67.65	0.00	0.0604	10.46	460.3	384.08	0.0515	374.9	6.748	13.76	5.88	1.60
	58.80	25.61	67.67	0.00	0.0604	10.47	460.9	384.45	0.0511	369.1	6.644	13.55	5.66	1.60
	59.81	25.62	67.65	0.00	0.0605	10.47	460.5	384.30	0.0512	370.2	6.664	13.59	5.70	1.60
	60.83	25.61	67.68	-0.00	0.0604	10.45	460.0	383.67	0.0516	372.8	6.710	13.68	5.80	1.60
	61.81	25.59	67.67	0.00	0.0604	10.44	459.2	383.01	0.0516	374.4	6.739	13.74	5.86	1.60
	62.81	25.63	67.65	0.00	0.0603	10.43	458.9	382.94	0.0512	371.5	6.686	13.64	5.75	1.60
	63.80	25.63	67.68	0.00	0.0601	10.39	457.2	381.41	0.0513	371.6	6.689	13.64	5.76	1.60
	64.82	25.65	67.65	0.00	0.0601	10.38	456.8	381.21	0.0518	376.4	6.775	13.82	5.94	1.60
	65.82	25.65	67.65	-0.00	0.0601	10.37	456.3	380.83	0.0521	380.4	6.847	13.97	6.09	1.60
	66.89	25.65	67.65	-0.00	0.0601	10.38	456.9	381.30	0.0521	379.6	6.834	13.94	6.07	1.60
	67.81	25.65	67.65	-0.00	0.0601	10.40	457.7	382.01	0.0524	383.0	6.894	14.06	6.19	1.60
	68.80	25.65	67.65	0.00	0.0601	10.40	457.7	382.02	0.0519	378.0	6.804	13.88	6.00	1.60
	69.81	25.63	67.65	-0.00	0.0600	10.39	457.2	381.51	0.0522	379.4	6.830	13.93	6.06	1.60
	70.81	25.65	67.68	-0.00	0.0600	10.37	456.4	380.76	0.0525	382.9	6.891	14.05	6.19	1.60
	71.81	25.65	67.65	0.00	0.0601	10.41	457.9	382.12	0.0526	382.0	6.876	14.03	6.16	1.60
	72.81	25.65	67.68	-0.00	0.0600	10.38	456.7	381.05	0.0526	386.0	6.948	14.17	6.31	1.60
	73.80	25.67	67.65	-0.00	0.0601	10.38	456.6	381.11	0.0523	379.2	6.826	13.93	6.05	1.59
	74.82	25.65	67.65	-0.00	0.0600	10.35	455.6	380.23	0.0529	386.7	6.961	14.20	6.33	1.60
	75.82	25.65	67.68	0.00	0.0598	10.30	453.3	378.17	0.0535	392.6	7.067	14.41	6.55	1.60
	76.80	25.67	67.65	0.00	0.0595	10.28	452.4	377.58	0.0541	395.7	7.122	14.53	6.67	1.60
	77.81	25.65	67.65	0.00	0.0601	10.40	457.7	382.03	0.0532	389.1	7.004	14.29	6.42	1.60
	78.81	25.67	67.68	-0.00	0.0600	10.35	455.5	379.99	0.0527	389.4	7.010	14.30	6.44	1.60
	79.79	25.67	67.67	0.00	0.0600	10.36	455.9	380.35	0.0534	393.7	7.087	14.45	6.60	1.60
	80.81	25.66	67.65	0.00	0.0599	10.36	455.6	380.29	0.0533	391.4	7.046	14.37	6.51	1.60
	81.81	25.67	67.68	-0.00	0.0598	10.33	454.4	379.08	0.0534	391.8	7.053	14.38	6.53	1.60
	82.81	25.67	67.65	0.00	0.0598	10.32	453.9	378.83	0.0536	394.1	7.094	14.47	6.61	1.60
	83.82	25.67	67.63	-0.00	0.0598	10.32	454.0	379.04	0.0537	396.6	7.139	14.57	6.70	1.60
	84.80	25.66	67.65	0.00	0.0598	10.30	453.3	378.37	0.0538	395.9	7.125	14.54	6.67	1.59
	85.80	25.69	67.65	0.00	0.0598	10.32	454.0	378.96	0.0542	401.2	7.222	14.73	6.87	1.60
	86.80	25.67	67.65	0.00	0.0598	10.32	454.0	378.93	0.0540	398.5	7.173	14.64	6.77	1.60
	87.81	25.67	67.68	0.00	0.0598	10.32	454.2	378.93	0.0540	399.5	7.191	14.67	6.81	1.60
	88.80	25.67	67.63	0.00	0.0599	10.33	454.7	379.61	0.0540	399.2	7.186	14.67	6.80	1.59
	89.81	25.68	67.70	0.00	0.0599	10.34	454.8	379.33	0.0540	398.3	7.169	14.62	6.76	1.60
	90.81	25.68	67.65	-0.00	0.0598	10.31	453.8	378.81	0.0543	401.2	7.222	14.74	6.87	1.59
	91.82	25.69	67.68	-0.00	0.0597	10.30	453.4	378.27	0.0544	402.7	7.249	14.78	6.92	1.59
	92.81	25.69	67.65	-0.00	0.0597	10.30	453.0	378.08	0.0553	412.4	7.423	15.14	7.27	1.60
	93.82	25.69	67.68	-0.00	0.0596	10.29	452.6	377.62	0.0553	413.5	7.443	15.18	7.31	1.60
	94.80	25.70	67.68	-0.00	0.0597	10.30	453.3	378.24	0.0558	416.3	7.494	15.28	7.41	1.60
	95.80	25.70	67.67	0.00	0.0595	10.29	452.6	377.68	0.0566	424.9	7.649	15.60	7.71	1.59
	96.80	25.72	67.65	0.00	0.0595	10.27	451.8	377.16	0.0568	425.9	7.667	15.64	7.75	1.59
	97.80	25.70	67.68	0.00	0.0594	10.25	451.0	376.36	0.0567	427.7	7.698	15.70	7.80	1.60
	98.89	25.72	67.63	-0.00	0.0594	10.25	450.9	376.57	0.0583	441.7	7.950	16.23	8.28	1.60
	99.81	25.72	67.65	0.00	0.0593	10.24	450.4	375.97	0.0578	438.8	7.898	16.12	8.18	1.60
	100.81	25.72	67.65	0.00	0.0591	10.20	448.7	374.54	0.0583	444.1	7.994	16.31	8.36	1.60
	101.81	25.72	67.65	-0.00	0.0593	10.22	449.6	375.35	0.0584	445.7	8.022	16.37	8.41	1.59
	102.80	25.72	67.65	0.00	0.0592	10.20	448.7	374.55	0.0588	446.3	8.034	16.39	8.43	1.59
	103.80	25.74	67.65	0.00	0.0591	10.16	447.2	373.33	0.0596	457.6	8.238	16.81	8.80	1.59
	104.80	25.74	67.68	0.00	0.0592	10.17	447.4	373.36	0.0594	456.8	8.222	16.77	8.78	1.60
	105.81	25.74	67.65	-0.00	0.0590	10.12	445.1	371.60	0.0593	455.0	8.190	16.71	8.72	1.60
	106.88	25.75	67.66	-0.00	0.0592	10.19	448.4	374.29	0.0591	452.3	8.141	16.61	8.63	1.59
	107.80	25.78	67.70	0.00	0.0590	10.16	447.1	373.05	0.0590	453.8	8.168	16.66	8.68	1.60
	108.80	25.76	67.68	0.00	0.0590	10.17	447.5	373.41	0.0582	444.0	7.993	16.30	8.36	1.59
	109.81	25.75	67.66	0.00	0.0592	10.18	448.0	373.99	0.0583	445.0	8.009	16.34	8.39	1.60
	110.81	25.76	67.65	0.00	0.0593	10.19	448.5	374.43	0.0579	442.7	7.968	16.26	8.31	1.60
	111.81	25.75	67.68	0.00	0.0591	10.19	448.2	374.03	0.0579	441.2	7.942	16.20	8.27	1.60
	112.80	25.78	67.67	0.00	0.0593	10.21	449.3	375.01	0.0580	441.4	7.945	16.21	8.27	1.60
	113.80	25.78	67.65	0.00	0.0591	10.18	447.8	373.87	0.0587	445.2	8.013	16.35	8.40	1.59
	114.80	25.78	67.65	0.00	0.0592	10.17	447.3	373.45	0.0586	446.8	8.042	16.41	8.45	1.60
	115.80	25.77	67.65	0.00	0.0593	10.20	448.9	374.82	0.0585	447.3	8.051	16.43	8.47	1.60
	116.81	25.78	67.65	-0.00	0.0592	10.18	447.8	373.91	0.0590	452.8	8.151	16.64	8.65	1.60
	117.81	25.78	67.65	0.00	0.0592	10.18	447.9	373.95	0.0587	448.7	8.076	16.48	8.51	1.59
	118.79	25.79	67.68	0.00	0.0592	10.18	448.0	373.87	0.0590	451.1	8.119	16.56	8.59	1.59
	119.81	25.78	67.68	-0.00	0.0593	10.19	448.4	374.28	0.0592	452.9	8.152	16.63	8.65	1.59
	120.79	25.79	67.68	0.00	0.0592	10.19	448.2	374.09	0.0596	453.6	8.165	16.66	8.68	1.59
	121.88	25.79	67.68	-0.00	0.0591	10.16	447.2	373.25	0.0596	459.5	8.270	16.87	8.87	1.60
