Jul 28 2015 at 12:52:44
Frequency: 1.00Hz.
CO2
Zero:  Value:0.95  Date:18 Mar 2005	 at 07:22:33	
Span:  Value:1.00  Date:18 Mar 2005	 at 07:25:09	
H2O
Zero:  Value:0.71  Date:18 Mar 2005	 at 07:52:31	
Span:  Value:0.99  Date:18 Mar 2005	 at 11:44:01	
	Relative Time	Temperature	Pressure	Aux Input	CO2 Absorptance	CO2 mmol/m3	CO2 mg/m3	CO2 umol/mol	H2O Absorptance	H2O mmol/m3	H2O g/m3	H2O mmol/mol	H2O(°C)	Cooler Voltage
	0.76	31.15	67.77	0.00	0.0617	10.74	472.6	400.96	0.0441	302.7	5.449	11.30	3.09	1.61
	1.76	31.14	67.70	0.00	0.0615	10.71	471.2	400.21	0.0440	301.8	5.433	11.28	3.05	1.61
	2.78	31.19	67.68	-0.00	0.0614	10.69	470.3	399.62	0.0443	307.6	5.536	11.50	3.32	1.62
	3.77	31.23	67.70	-0.00	0.0616	10.71	471.1	400.22	0.0453	314.1	5.653	11.74	3.62	1.62
	4.76	31.25	67.72	0.00	0.0615	10.69	470.4	399.52	0.0460	315.8	5.684	11.80	3.69	1.62
	5.83	31.25	67.70	0.00	0.0616	10.72	471.5	400.59	0.0474	330.6	5.950	12.36	4.34	1.61
	6.79	31.30	67.70	0.00	0.0612	10.65	468.7	398.29	0.0466	328.9	5.921	12.30	4.28	1.61
	7.77	31.29	67.70	-0.00	0.0616	10.74	472.8	401.72	0.0479	337.9	6.082	12.63	4.66	1.61
	8.75	31.33	67.70	0.00	0.0618	10.75	473.0	401.93	0.0477	338.9	6.101	12.67	4.70	1.62
	9.78	31.34	67.68	-0.00	0.0619	10.81	475.6	404.34	0.0484	344.3	6.197	12.88	4.93	1.61
	10.75	31.34	67.75	0.00	0.0621	10.84	477.0	405.06	0.0487	345.4	6.218	12.91	4.98	1.61
	11.76	31.35	67.70	0.00	0.0618	10.76	473.6	402.47	0.0486	344.1	6.193	12.87	4.92	1.61
	12.78	31.33	67.70	-0.00	0.0620	10.82	475.9	404.42	0.0479	339.5	6.111	12.69	4.73	1.61
	13.76	31.33	67.70	0.00	0.0616	10.75	472.8	401.75	0.0474	334.7	6.024	12.51	4.52	1.62
	14.77	31.37	67.72	0.00	0.0617	10.74	472.4	401.40	0.0470	329.7	5.935	12.33	4.31	1.62
	15.76	31.37	67.73	0.00	0.0616	10.72	471.6	400.69	0.0470	329.0	5.922	12.30	4.28	1.62
	16.77	31.37	67.70	0.00	0.0617	10.74	472.6	401.65	0.0472	331.9	5.975	12.41	4.41	1.61
	17.77	31.39	67.70	-0.00	0.0617	10.75	472.8	401.90	0.0476	334.6	6.022	12.51	4.52	1.61
	18.77	31.36	67.72	0.00	0.0616	10.73	471.9	400.96	0.0474	332.6	5.987	12.43	4.44	1.61
	19.77	31.37	67.70	-0.00	0.0617	10.73	472.2	401.34	0.0476	333.8	6.008	12.48	4.49	1.61
	20.75	31.36	67.70	0.00	0.0615	10.68	469.8	399.26	0.0484	341.9	6.154	12.79	4.83	1.62
	21.76	31.37	67.68	-0.00	0.0614	10.68	469.8	399.44	0.0492	347.9	6.262	13.02	5.08	1.61
	22.76	31.37	67.70	0.00	0.0614	10.68	469.9	399.37	0.0493	352.9	6.352	13.20	5.28	1.61
	23.85	31.39	67.70	-0.00	0.0616	10.72	471.6	400.80	0.0493	350.6	6.310	13.11	5.19	1.61
	24.76	31.38	67.72	0.00	0.0614	10.67	469.5	398.95	0.0498	356.0	6.408	13.31	5.41	1.61
	25.77	31.39	67.68	0.00	0.0615	10.68	469.9	399.57	0.0502	358.3	6.450	13.41	5.51	1.61
	26.77	31.41	67.70	-0.00	0.0613	10.65	468.7	398.44	0.0502	360.8	6.495	13.49	5.61	1.62
	27.77	31.39	67.70	0.00	0.0613	10.65	468.7	398.39	0.0501	363.0	6.533	13.57	5.69	1.61
	28.83	31.41	67.68	0.00	0.0613	10.66	469.1	398.92	0.0505	361.6	6.508	13.53	5.64	1.61
	29.78	31.43	67.70	-0.00	0.0613	10.64	468.2	397.98	0.0503	362.4	6.523	13.55	5.67	1.61
	30.76	31.43	67.77	0.00	0.0615	10.70	470.6	399.64	0.0508	361.2	6.501	13.49	5.62	1.61
	31.75	31.47	67.70	0.00	0.0613	10.67	469.7	399.33	0.0512	371.4	6.684	13.89	6.03	1.61
	32.84	31.51	67.68	-0.00	0.0611	10.63	467.8	397.91	0.0511	371.7	6.690	13.91	6.04	1.62
	33.76	31.46	67.73	-0.00	0.0613	10.64	468.3	397.96	0.0528	380.9	6.857	14.24	6.39	1.61
	34.77	31.45	67.70	0.00	0.0613	10.66	469.2	398.85	0.0529	388.1	6.986	14.52	6.67	1.61
	35.77	31.43	67.73	-0.00	0.0612	10.64	468.2	397.89	0.0533	390.2	7.024	14.59	6.74	1.61
	36.78	31.43	67.70	0.00	0.0611	10.60	466.5	396.53	0.0527	385.5	6.939	14.42	6.56	1.62
	37.77	31.45	67.72	0.00	0.0612	10.64	468.3	397.98	0.0532	386.7	6.961	14.46	6.61	1.62
	38.78	31.45	67.70	-0.00	0.0613	10.61	466.8	396.89	0.0518	382.7	6.889	14.32	6.46	1.61
	39.77	31.45	67.75	0.00	0.0610	10.61	466.8	396.58	0.0532	391.0	7.037	14.61	6.77	1.61
	40.76	31.51	67.72	0.00	0.0612	10.65	468.6	398.29	0.0534	395.3	7.116	14.79	6.94	1.61
	41.78	31.51	67.75	-0.00	0.0611	10.58	465.7	395.69	0.0534	393.3	7.080	14.70	6.86	1.61
	42.78	31.51	67.72	0.00	0.0611	10.59	465.8	395.93	0.0533	394.3	7.098	14.75	6.90	1.61
	43.76	31.58	67.72	0.00	0.0611	10.61	467.0	397.01	0.0535	394.5	7.100	14.76	6.91	1.62
	44.84	31.55	67.72	0.00	0.0611	10.61	466.6	396.71	0.0533	392.3	7.062	14.68	6.83	1.61
	45.77	31.57	67.70	-0.00	0.0611	10.61	466.9	397.07	0.0536	394.2	7.096	14.75	6.90	1.61
	46.75	31.58	67.70	0.00	0.0610	10.57	465.0	395.51	0.0546	402.4	7.243	15.06	7.20	1.61
	47.77	31.59	67.70	-0.00	0.0610	10.58	465.6	395.96	0.0547	405.4	7.296	15.17	7.31	1.61
	48.77	31.55	67.75	0.00	0.0610	10.58	465.7	395.75	0.0548	407.1	7.328	15.22	7.37	1.61
	49.78	31.57	67.70	-0.00	0.0610	10.58	465.3	395.75	0.0542	401.6	7.228	15.03	7.17	1.62
	50.76	31.54	67.70	0.00	0.0607	10.54	463.9	394.54	0.0539	402.6	7.247	15.06	7.20	1.61
	51.78	31.60	67.70	-0.00	0.0610	10.58	465.5	395.95	0.0547	405.6	7.301	15.18	7.31	1.61
	52.77	31.55	67.72	0.00	0.0610	10.58	465.4	395.68	0.0554	414.1	7.453	15.49	7.61	1.61
	53.76	31.57	67.73	0.00	0.0609	10.56	464.6	394.92	0.0554	412.2	7.419	15.42	7.55	1.61
	54.76	31.59	67.70	0.00	0.0608	10.54	463.7	394.40	0.0553	411.3	7.403	15.39	7.52	1.61
	55.77	31.57	67.72	-0.00	0.0608	10.55	464.4	394.82	0.0557	413.7	7.447	15.48	7.60	1.61
	56.77	31.57	67.72	-0.00	0.0609	10.55	464.0	394.51	0.0563	421.5	7.586	15.77	7.87	1.61
	57.77	31.60	67.70	0.00	0.0606	10.50	462.1	393.01	0.0574	434.2	7.816	16.25	8.32	1.61
	58.77	31.59	67.72	0.00	0.0606	10.48	461.1	392.06	0.0572	432.3	7.782	16.17	8.25	1.61
	59.76	31.59	67.70	0.00	0.0607	10.50	462.0	392.93	0.0569	427.5	7.695	16.00	8.08	1.61
	60.76	31.60	67.75	0.00	0.0606	10.50	462.1	392.77	0.0567	427.8	7.700	16.00	8.09	1.61
	61.78	31.59	67.70	-0.00	0.0606	10.50	462.1	393.04	0.0571	431.5	7.767	16.15	8.22	1.61
	62.85	31.57	67.73	-0.00	0.0606	10.51	462.2	392.96	0.0563	423.4	7.622	15.84	7.94	1.61
	63.76	31.59	67.70	0.00	0.0608	10.52	462.7	393.57	0.0570	428.1	7.705	16.02	8.10	1.61
	64.76	31.59	67.70	0.00	0.0606	10.50	462.1	393.04	0.0569	430.9	7.757	16.13	8.20	1.61
	65.75	31.62	67.73	0.00	0.0605	10.49	461.5	392.42	0.0577	433.3	7.800	16.21	8.29	1.62
	66.77	31.63	67.70	-0.00	0.0606	10.49	461.5	392.56	0.0573	434.5	7.822	16.26	8.33	1.62
	67.77	31.61	67.70	0.00	0.0606	10.51	462.4	393.27	0.0574	434.8	7.827	16.27	8.34	1.62
	68.75	31.59	67.70	0.00	0.0607	10.50	462.2	393.07	0.0585	448.8	8.079	16.80	8.80	1.61
	69.76	31.59	67.70	-0.00	0.0606	10.50	462.0	392.91	0.0577	439.6	7.912	16.45	8.50	1.61
	70.76	31.54	67.70	-0.00	0.0607	10.50	462.2	393.02	0.0571	432.3	7.782	16.18	8.25	1.61
	71.78	31.55	67.70	0.00	0.0607	10.51	462.4	393.20	0.0570	429.8	7.736	16.08	8.16	1.61
	72.76	31.55	67.70	0.00	0.0608	10.52	462.9	393.69	0.0572	431.9	7.774	16.16	8.23	1.62
	73.79	31.54	67.72	-0.00	0.0607	10.52	462.7	393.32	0.0577	438.6	7.894	16.40	8.46	1.61
	74.83	31.56	67.75	0.00	0.0606	10.51	462.3	392.90	0.0580	441.8	7.952	16.52	8.57	1.61
	75.78	31.51	67.70	-0.00	0.0606	10.50	462.0	392.80	0.0582	439.2	7.906	16.43	8.48	1.61
	76.77	31.51	67.72	0.00	0.0606	10.51	462.3	393.00	0.0585	445.8	8.024	16.67	8.70	1.61
	77.75	31.54	67.73	0.00	0.0606	10.52	462.7	393.32	0.0591	454.6	8.183	17.00	8.99	1.62
	78.77	31.49	67.72	0.00	0.0606	10.51	462.3	392.90	0.0590	456.0	8.208	17.05	9.03	1.62
	79.76	31.46	67.68	-0.00	0.0605	10.48	461.2	392.26	0.0586	450.7	8.112	16.87	8.86	1.61
	80.76	31.50	67.72	0.00	0.0604	10.48	461.0	391.82	0.0587	449.8	8.097	16.82	8.83	1.61
	81.76	31.51	67.72	-0.00	0.0605	10.46	460.4	391.34	0.0588	448.8	8.079	16.79	8.80	1.61
	82.76	31.53	67.73	0.00	0.0604	10.46	460.4	391.36	0.0585	447.4	8.053	16.73	8.75	1.61
	83.77	31.56	67.70	-0.00	0.0605	10.48	461.1	392.13	0.0584	446.5	8.038	16.71	8.73	1.62
	84.79	31.56	67.70	-0.00	0.0605	10.48	460.9	391.97	0.0585	446.3	8.033	16.70	8.72	1.62
	85.77	31.55	67.73	-0.00	0.0604	10.46	460.2	391.21	0.0583	445.5	8.018	16.66	8.69	1.61
	86.75	31.62	67.72	0.00	0.0605	10.47	460.9	391.88	0.0587	448.3	8.069	16.77	8.79	1.62
	87.77	31.56	67.70	0.00	0.0605	10.48	461.0	392.08	0.0587	448.9	8.081	16.80	8.81	1.61
	88.75	31.59	67.70	0.00	0.0605	10.47	460.6	391.79	0.0586	446.3	8.033	16.70	8.72	1.62
	89.76	31.62	67.70	0.00	0.0604	10.46	460.4	391.61	0.0585	447.0	8.046	16.73	8.74	1.62
	90.75	31.66	67.70	0.00	0.0603	10.45	459.7	391.06	0.0585	447.3	8.051	16.74	8.76	1.62
	91.76	31.59	67.70	0.00	0.0604	10.47	460.5	391.64	0.0587	448.9	8.080	16.80	8.81	1.61
	92.76	31.62	67.70	0.00	0.0603	10.43	459.1	390.52	0.0586	447.7	8.059	16.76	8.77	1.62
	93.76	31.58	67.70	0.00	0.0604	10.45	459.8	391.02	0.0585	446.3	8.033	16.70	8.72	1.62
	94.77	31.60	67.72	0.00	0.0605	10.48	461.0	392.00	0.0592	452.4	8.144	16.93	8.92	1.61
	95.75	31.62	67.73	0.00	0.0605	10.46	460.2	391.32	0.0594	457.8	8.240	17.13	9.10	1.62
	96.77	31.64	67.70	0.00	0.0605	10.47	460.7	391.90	0.0594	458.1	8.246	17.15	9.11	1.62
	97.75	31.60	67.70	0.00	0.0605	10.46	460.3	391.49	0.0593	454.7	8.184	17.02	9.00	1.61
	98.76	31.63	67.75	0.00	0.0605	10.48	461.1	391.93	0.0603	466.1	8.391	17.43	9.37	1.61
	99.84	31.61	67.75	0.00	0.0605	10.47	460.5	391.39	0.0603	464.5	8.362	17.37	9.31	1.62
	100.76	31.61	67.73	0.00	0.0605	10.48	461.2	392.08	0.0602	464.4	8.359	17.37	9.31	1.62
	101.78	31.60	67.72	-0.00	0.0604	10.45	459.7	390.87	0.0597	460.9	8.296	17.24	9.20	1.62
	102.77	31.60	67.70	-0.00	0.0605	10.47	460.7	391.82	0.0599	461.1	8.301	17.26	9.20	1.62
	103.76	31.61	67.70	0.00	0.0605	10.48	461.3	392.40	0.0600	463.1	8.335	17.33	9.27	1.61
	104.75	31.62	67.72	0.00	0.0605	10.47	460.7	391.70	0.0599	462.1	8.318	17.29	9.24	1.62
	105.75	31.63	67.70	0.00	0.0605	10.46	460.5	391.68	0.0597	459.5	8.271	17.20	9.15	1.61
	106.77	31.62	67.72	-0.00	0.0605	10.46	460.3	391.37	0.0593	454.7	8.185	17.01	9.00	1.62
	107.78	31.66	67.70	-0.00	0.0604	10.46	460.1	391.41	0.0594	456.3	8.214	17.08	9.05	1.62
	108.78	31.68	67.70	0.00	0.0604	10.46	460.1	391.43	0.0596	458.7	8.257	17.17	9.13	1.62
	109.78	31.64	67.72	0.00	0.0605	10.48	460.9	391.95	0.0598	460.9	8.296	17.25	9.20	1.62
	110.76	31.65	67.72	0.00	0.0605	10.47	460.5	391.65	0.0598	459.8	8.276	17.20	9.16	1.62
	111.76	31.67	67.72	0.00	0.0604	10.46	460.1	391.27	0.0598	460.0	8.280	17.21	9.17	1.62
	112.76	31.62	67.72	0.00	0.0603	10.44	459.5	390.70	0.0596	459.3	8.267	17.18	9.15	1.62
	113.77	31.61	67.70	0.00	0.0603	10.44	459.4	390.79	0.0597	458.9	8.260	17.17	9.13	1.62
	114.75	31.59	67.68	0.00	0.0604	10.44	459.4	390.83	0.0596	459.1	8.264	17.19	9.14	1.62
	115.77	31.53	67.70	0.00	0.0605	10.47	460.6	391.62	0.0595	456.5	8.218	17.08	9.05	1.62
	116.77	31.49	67.72	-0.00	0.0605	10.47	460.7	391.57	0.0594	456.2	8.212	17.06	9.04	1.62
	117.77	31.54	67.72	0.00	0.0605	10.47	460.5	391.48	0.0594	456.1	8.209	17.06	9.04	1.62
	118.75	31.49	67.70	0.00	0.0604	10.45	459.8	390.95	0.0595	456.5	8.218	17.08	9.05	1.62
	119.78	31.45	67.72	-0.00	0.0603	10.44	459.5	390.49	0.0598	459.9	8.278	17.20	9.16	1.62
	120.76	31.41	67.72	-0.00	0.0604	10.44	459.4	390.40	0.0598	459.2	8.266	17.17	9.13	1.62
	121.77	31.41	67.68	-0.00	0.0603	10.45	459.7	390.93	0.0600	462.9	8.332	17.32	9.25	1.62
	122.83	31.43	67.70	0.00	0.0603	10.43	458.9	390.10	0.0599	460.7	8.292	17.23	9.18	1.62
	123.79	31.42	67.70	-0.00	0.0603	10.42	458.6	389.78	0.0600	462.3	8.321	17.29	9.23	1.62
