Jul 28 2015 at 13:26:39
Frequency: 1.00Hz.
CO2
Zero:  Value:0.95  Date:18 Mar 2005	 at 07:22:33	
Span:  Value:1.00  Date:18 Mar 2005	 at 07:25:09	
H2O
Zero:  Value:0.71  Date:18 Mar 2005	 at 07:52:31	
Span:  Value:0.99  Date:18 Mar 2005	 at 11:44:01	
	Relative Time	Temperature	Pressure	Aux Input	CO2 Absorptance	CO2 mmol/m3	CO2 mg/m3	CO2 umol/mol	H2O Absorptance	H2O mmol/m3	H2O g/m3	H2O mmol/mol	H2O(°C)	Cooler Voltage
	0.87	33.98	67.68	0.00	0.0613	10.64	468.3	401.55	0.0481	346.6	6.238	13.08	5.15	1.61
	1.89	34.00	67.70	-0.00	0.0611	10.60	466.6	399.98	0.0493	352.5	6.345	13.30	5.39	1.61
	2.89	34.04	67.68	-0.00	0.0612	10.61	466.9	400.44	0.0499	364.0	6.553	13.74	5.86	1.60
	3.88	34.01	67.70	0.00	0.0609	10.57	465.0	398.62	0.0540	400.2	7.203	15.10	7.23	1.60
	4.88	34.02	67.72	-0.00	0.0606	10.49	461.5	395.54	0.0600	464.5	8.362	17.52	9.43	1.60
	5.88	34.02	67.72	-0.00	0.0608	10.53	463.4	397.14	0.0574	430.6	7.751	16.24	8.31	1.60
	6.88	33.98	67.72	0.00	0.0608	10.55	464.2	397.74	0.0565	416.5	7.497	15.70	7.82	1.61
	7.88	33.96	67.70	0.00	0.0608	10.51	462.6	396.50	0.0552	435.1	7.832	16.41	8.46	1.61
	8.88	33.94	67.70	0.00	0.0607	10.53	463.5	397.30	0.0527	381.5	6.866	14.39	6.53	1.60
	9.88	33.97	67.70	0.00	0.0606	10.51	462.6	396.54	0.0536	398.2	7.167	15.02	7.16	1.60
	10.95	33.98	67.72	0.00	0.0607	10.52	463.0	396.79	0.0538	399.0	7.183	15.05	7.19	1.60
	11.89	33.94	67.70	0.00	0.0609	10.54	463.7	397.42	0.0540	395.3	7.115	14.91	7.05	1.60
	12.89	33.93	67.70	0.00	0.0609	10.57	465.2	398.71	0.0541	400.7	7.213	15.11	7.25	1.60
	13.87	33.94	67.70	0.00	0.0608	10.54	463.9	397.59	0.0542	402.5	7.246	15.18	7.32	1.60
	14.96	33.96	67.66	0.00	0.0608	10.55	464.4	398.34	0.0547	406.5	7.316	15.34	7.46	1.60
	15.87	33.96	67.70	0.00	0.0608	10.54	464.0	397.68	0.0553	412.5	7.425	15.56	7.68	1.60
	16.89	33.98	67.68	-0.00	0.0608	10.54	463.9	397.78	0.0562	420.3	7.565	15.86	7.95	1.60
	17.88	34.01	67.72	-0.00	0.0607	10.52	462.8	396.60	0.0562	421.7	7.591	15.90	8.00	1.60
	18.88	34.00	67.70	0.00	0.0608	10.53	463.2	397.09	0.0565	423.2	7.617	15.96	8.05	1.60
	19.89	33.98	67.68	0.00	0.0608	10.54	463.6	397.51	0.0566	424.3	7.638	16.01	8.09	1.60
	20.87	33.98	67.70	0.00	0.0608	10.53	463.1	397.02	0.0566	422.4	7.602	15.93	8.02	1.60
	21.96	34.02	67.68	-0.00	0.0609	10.55	464.4	398.31	0.0577	437.5	7.876	16.51	8.54	1.60
	22.89	34.05	67.68	0.00	0.0609	10.55	464.2	398.13	0.0583	442.4	7.964	16.70	8.71	1.60
	23.90	34.06	67.70	0.00	0.0607	10.53	463.3	397.21	0.0570	435.6	7.840	16.43	8.48	1.60
	24.87	34.04	67.68	0.00	0.0607	10.52	462.9	397.02	0.0572	432.6	7.786	16.32	8.38	1.61
	25.88	34.07	67.70	0.00	0.0606	10.50	462.0	396.11	0.0573	432.2	7.780	16.31	8.37	1.61
	26.94	34.07	67.72	0.00	0.0608	10.53	463.1	396.98	0.0579	439.7	7.914	16.58	8.62	1.60
	27.88	34.09	67.70	0.00	0.0609	10.56	464.6	398.36	0.0576	437.4	7.872	16.50	8.54	1.60
	28.88	34.09	67.68	0.00	0.0609	10.55	464.1	398.13	0.0579	438.7	7.897	16.56	8.59	1.60
	29.88	34.08	67.70	0.00	0.0609	10.55	464.2	398.06	0.0576	436.9	7.865	16.49	8.53	1.61
	30.87	34.11	67.68	0.00	0.0608	10.54	463.8	397.92	0.0572	432.7	7.788	16.33	8.38	1.60
	31.89	34.13	67.70	-0.00	0.0611	10.59	465.9	399.57	0.0576	436.7	7.860	16.48	8.52	1.60
	32.88	34.14	67.70	0.00	0.0609	10.57	465.2	398.93	0.0576	437.4	7.873	16.50	8.54	1.60
	33.88	34.19	67.70	-0.00	0.0608	10.52	462.9	397.12	0.0575	434.2	7.816	16.39	8.44	1.60
	34.88	34.19	67.70	0.00	0.0608	10.54	463.5	397.64	0.0578	438.2	7.887	16.54	8.57	1.61
	35.88	34.22	67.70	-0.00	0.0608	10.53	463.3	397.46	0.0577	437.3	7.872	16.51	8.55	1.60
	36.88	34.21	67.68	0.00	0.0608	10.54	463.6	397.82	0.0576	437.0	7.866	16.50	8.54	1.61
	37.89	34.19	67.70	-0.00	0.0607	10.52	463.0	397.18	0.0584	442.7	7.968	16.71	8.73	1.60
	38.88	34.21	67.68	0.00	0.0607	10.53	463.2	397.52	0.0585	445.6	8.021	16.83	8.82	1.60
	39.89	34.22	67.68	-0.00	0.0608	10.54	463.8	398.04	0.0587	446.7	8.041	16.87	8.86	1.61
	40.87	34.24	67.70	0.00	0.0607	10.53	463.3	397.44	0.0587	450.0	8.100	16.99	8.97	1.61
	41.89	34.23	67.68	-0.00	0.0607	10.53	463.3	397.63	0.0589	445.9	8.025	16.84	8.83	1.61
	42.88	34.21	67.68	0.00	0.0607	10.50	462.2	396.66	0.0591	452.6	8.146	17.09	9.05	1.61
	43.87	34.21	67.70	0.00	0.0607	10.52	462.8	397.03	0.0590	456.9	8.223	17.24	9.19	1.61
	44.88	34.26	67.68	0.00	0.0608	10.54	463.7	397.97	0.0583	443.7	7.987	16.76	8.76	1.61
	45.90	34.26	67.70	-0.00	0.0608	10.52	463.1	397.31	0.0583	445.4	8.018	16.82	8.82	1.61
	46.88	34.26	67.68	0.00	0.0606	10.51	462.5	396.95	0.0583	446.1	8.031	16.85	8.84	1.61
	47.95	34.26	67.72	0.00	0.0607	10.52	462.7	396.84	0.0585	449.3	8.087	16.95	8.95	1.61
	48.88	34.28	67.70	0.00	0.0606	10.51	462.6	396.95	0.0587	449.2	8.085	16.96	8.94	1.61
	49.89	34.26	67.70	0.00	0.0607	10.50	462.0	396.34	0.0590	451.4	8.125	17.04	9.02	1.61
	50.87	34.29	67.70	0.00	0.0606	10.49	461.7	396.17	0.0597	457.0	8.225	17.25	9.20	1.60
	51.89	34.25	67.70	0.00	0.0606	10.50	461.9	396.28	0.0599	467.4	8.414	17.65	9.53	1.60
	52.88	34.26	67.70	-0.00	0.0605	10.48	461.0	395.57	0.0611	478.2	8.607	18.05	9.87	1.61
	53.90	34.28	67.72	-0.00	0.0605	10.49	461.5	395.87	0.0598	460.4	8.287	17.37	9.31	1.61
	54.87	34.33	67.70	0.00	0.0606	10.49	461.7	396.22	0.0601	463.2	8.337	17.49	9.40	1.60
	55.86	34.28	67.70	0.00	0.0606	10.50	461.8	396.25	0.0598	461.8	8.313	17.43	9.36	1.61
	56.88	34.28	67.70	-0.00	0.0606	10.50	461.9	396.33	0.0594	457.3	8.232	17.27	9.21	1.60
	57.89	34.28	67.70	-0.00	0.0607	10.51	462.5	396.82	0.0592	453.6	8.165	17.13	9.09	1.61
	58.89	34.31	67.68	0.00	0.0606	10.50	461.8	396.42	0.0603	460.0	8.279	17.37	9.30	1.61
	59.87	34.28	67.70	0.00	0.0606	10.48	461.1	395.64	0.0597	464.6	8.363	17.54	9.45	1.61
	60.89	34.30	67.70	0.00	0.0605	10.48	461.3	395.88	0.0612	474.6	8.543	17.92	9.76	1.61
	61.89	34.27	67.70	-0.00	0.0606	10.49	461.5	395.99	0.0599	461.7	8.311	17.43	9.35	1.61
	62.90	34.34	67.70	0.00	0.0606	10.48	461.2	395.84	0.0595	458.2	8.247	17.30	9.24	1.61
	63.87	34.32	67.70	0.00	0.0606	10.49	461.6	396.16	0.0592	455.3	8.195	17.19	9.15	1.61
	64.88	34.36	67.70	0.00	0.0606	10.50	461.8	396.38	0.0596	458.2	8.248	17.30	9.24	1.61
	65.88	34.37	67.68	0.00	0.0606	10.50	462.1	396.74	0.0593	456.5	8.217	17.25	9.19	1.61
	66.89	34.41	67.70	0.00	0.0606	10.50	462.0	396.63	0.0591	452.9	8.152	17.11	9.07	1.61
	67.88	34.39	67.70	-0.00	0.0605	10.50	462.1	396.66	0.0596	457.7	8.238	17.29	9.23	1.61
	68.88	34.36	67.70	0.00	0.0607	10.50	462.1	396.60	0.0594	456.6	8.219	17.24	9.19	1.61
	69.95	34.39	67.72	0.00	0.0607	10.51	462.5	396.83	0.0583	444.6	8.002	16.78	8.80	1.61
	70.87	34.37	67.70	0.00	0.0606	10.49	461.7	396.27	0.0583	444.0	7.992	16.77	8.78	1.61
	71.89	34.36	67.70	-0.00	0.0607	10.51	462.6	397.02	0.0589	448.5	8.073	16.94	8.93	1.61
	72.88	34.34	67.62	-0.00	0.0607	10.52	462.7	397.56	0.0584	442.5	7.966	16.73	8.73	1.61
	73.88	34.31	67.70	0.00	0.0607	10.52	462.7	397.04	0.0581	443.5	7.983	16.75	8.76	1.61
	74.88	34.32	67.72	0.00	0.0606	10.50	462.1	396.41	0.0582	442.0	7.955	16.68	8.71	1.61
	75.89	34.34	67.68	-0.00	0.0607	10.51	462.3	396.88	0.0584	444.9	8.008	16.81	8.81	1.61
	76.89	34.32	67.68	-0.00	0.0606	10.50	462.0	396.63	0.0583	444.5	8.001	16.79	8.79	1.61
	77.88	34.34	67.70	0.00	0.0606	10.50	461.9	396.41	0.0590	451.8	8.133	17.06	9.03	1.61
	78.87	34.37	67.68	0.00	0.0606	10.49	461.6	396.36	0.0594	454.1	8.173	17.15	9.11	1.61
	79.89	34.36	67.70	-0.00	0.0607	10.50	462.0	396.54	0.0597	461.2	8.302	17.42	9.34	1.61
	80.89	34.39	67.68	-0.00	0.0606	10.50	462.2	396.86	0.0596	457.5	8.235	17.29	9.22	1.61
	81.89	34.36	67.68	0.00	0.0606	10.51	462.3	396.89	0.0598	461.0	8.297	17.41	9.33	1.61
	82.87	34.38	67.68	0.00	0.0607	10.51	462.4	397.05	0.0601	462.7	8.329	17.48	9.39	1.61
	83.90	34.41	67.70	-0.00	0.0606	10.51	462.2	396.81	0.0601	464.3	8.358	17.54	9.44	1.61
	84.86	34.38	67.70	0.00	0.0607	10.51	462.3	396.84	0.0599	463.1	8.336	17.49	9.40	1.61
	85.86	34.38	67.68	0.00	0.0606	10.50	462.1	396.79	0.0599	460.7	8.293	17.41	9.33	1.61
	86.89	34.44	67.65	-0.00	0.0606	10.51	462.5	397.35	0.0600	463.6	8.345	17.53	9.42	1.61
	87.88	34.44	67.70	0.00	0.0607	10.51	462.6	397.13	0.0600	459.5	8.272	17.36	9.29	1.61
	88.89	34.41	67.70	0.00	0.0607	10.52	463.1	397.50	0.0591	454.8	8.187	17.18	9.14	1.61
	89.87	34.46	67.70	0.00	0.0607	10.52	462.7	397.24	0.0599	461.8	8.313	17.45	9.37	1.61
	90.87	34.46	67.70	0.00	0.0607	10.53	463.3	397.76	0.0602	464.7	8.365	17.56	9.46	1.61
	91.89	34.47	67.70	-0.00	0.0607	10.52	462.8	397.34	0.0598	461.8	8.312	17.44	9.36	1.61
	92.87	34.43	67.72	0.00	0.0607	10.53	463.4	397.66	0.0599	462.1	8.318	17.45	9.37	1.61
	93.88	34.48	67.70	0.00	0.0608	10.54	463.5	398.01	0.0598	460.2	8.284	17.39	9.32	1.61
	94.90	34.45	67.68	-0.00	0.0608	10.53	463.5	398.08	0.0596	457.4	8.233	17.28	9.22	1.61
	95.88	34.43	67.68	0.00	0.0608	10.53	463.2	397.77	0.0594	455.8	8.204	17.22	9.17	1.61
	96.88	34.45	67.68	0.00	0.0608	10.54	463.6	398.16	0.0597	461.0	8.298	17.42	9.34	1.61
	97.88	34.48	67.70	0.00	0.0607	10.52	463.0	397.57	0.0602	463.1	8.335	17.49	9.41	1.61
	98.89	34.45	67.68	-0.00	0.0608	10.53	463.2	397.79	0.0603	465.9	8.386	17.61	9.50	1.61
	99.87	34.45	67.68	0.00	0.0607	10.52	462.9	397.55	0.0600	464.8	8.366	17.56	9.46	1.61
	100.87	34.47	67.70	0.00	0.0607	10.52	462.8	397.33	0.0604	466.3	8.394	17.62	9.51	1.61
	101.90	34.47	67.68	-0.00	0.0607	10.52	462.8	397.52	0.0606	468.6	8.435	17.71	9.58	1.61
	102.87	34.47	67.68	0.00	0.0607	10.51	462.6	397.34	0.0607	470.5	8.468	17.78	9.64	1.61
	103.90	34.51	67.70	-0.00	0.0607	10.52	462.7	397.33	0.0606	469.3	8.447	17.73	9.61	1.61
	104.94	34.52	67.68	0.00	0.0607	10.52	462.7	397.48	0.0607	471.4	8.486	17.82	9.68	1.61
	105.86	34.47	67.68	0.00	0.0607	10.52	462.8	397.48	0.0610	473.5	8.524	17.90	9.74	1.61
	106.88	34.45	67.70	-0.00	0.0607	10.52	463.1	397.56	0.0618	484.5	8.722	18.30	10.08	1.61
	107.88	34.45	67.70	-0.00	0.0607	10.52	462.8	397.30	0.0621	485.1	8.732	18.33	10.10	1.61
	108.89	34.45	67.70	0.00	0.0607	10.52	462.8	397.31	0.0619	483.4	8.701	18.26	10.04	1.61
	109.89	34.47	67.70	0.00	0.0607	10.51	462.5	397.07	0.0621	484.2	8.716	18.29	10.07	1.61
	110.90	34.48	67.68	-0.00	0.0607	10.52	462.8	397.48	0.0617	480.3	8.645	18.15	9.95	1.61
	111.88	34.45	67.70	-0.00	0.0607	10.52	462.7	397.23	0.0619	485.1	8.731	18.32	10.10	1.61
	112.87	34.47	67.70	0.00	0.0607	10.51	462.4	397.01	0.0621	484.7	8.725	18.31	10.09	1.61
	113.88	34.49	67.72	0.00	0.0607	10.51	462.4	396.88	0.0623	488.3	8.790	18.44	10.20	1.61
	114.86	34.52	67.70	0.00	0.0606	10.51	462.4	397.07	0.0623	487.8	8.781	18.43	10.18	1.61
	115.97	34.50	67.72	-0.00	0.0606	10.50	462.2	396.74	0.0628	494.0	8.891	18.66	10.37	1.61
	116.88	34.49	67.65	0.00	0.0607	10.52	462.8	397.66	0.0629	495.6	8.920	18.74	10.42	1.61
	117.88	34.45	67.70	0.00	0.0607	10.51	462.3	396.91	0.0629	495.0	8.911	18.70	10.40	1.61
	118.89	34.47	67.70	-0.00	0.0607	10.51	462.4	397.01	0.0630	495.8	8.925	18.73	10.43	1.61
	119.87	34.47	67.68	0.00	0.0606	10.50	462.2	396.96	0.0635	501.5	9.026	18.95	10.60	1.61
