Jul 28 2015 at 9:53:51
Frequency: 1.00Hz.
CO2
Zero:  Value:0.95  Date:18 Mar 2005	 at 07:22:33	
Span:  Value:1.00  Date:18 Mar 2005	 at 07:25:09	
H2O
Zero:  Value:0.71  Date:18 Mar 2005	 at 07:52:31	
Span:  Value:0.99  Date:18 Mar 2005	 at 11:44:01	
	Relative Time	Temperature	Pressure	Aux Input	CO2 Absorptance	CO2 mmol/m3	CO2 mg/m3	CO2 umol/mol	H2O Absorptance	H2O mmol/m3	H2O g/m3	H2O mmol/mol	H2O(°C)	Cooler Voltage
	0.34	18.22	67.65	-0.00	0.0628	10.99	483.7	393.61	0.0424	285.9	5.147	10.24	1.68	1.52
	1.33	18.20	67.65	0.00	0.0627	10.96	482.4	392.55	0.0429	291.0	5.237	10.42	1.92	1.52
	2.34	18.23	67.65	0.00	0.0626	10.94	481.5	391.88	0.0435	297.2	5.350	10.64	2.22	1.52
	3.34	18.22	67.65	0.00	0.0623	10.91	480.0	390.61	0.0438	300.1	5.402	10.75	2.36	1.52
	4.42	18.23	67.65	0.00	0.0620	10.85	477.2	388.42	0.0455	307.4	5.533	11.01	2.69	1.52
	5.33	18.25	67.65	0.00	0.0620	10.83	476.4	387.74	0.0465	317.6	5.718	11.38	3.16	1.52
	6.33	18.25	67.65	0.00	0.0621	10.83	476.6	387.93	0.0492	351.3	6.324	12.58	4.59	1.52
	7.35	18.23	67.62	-0.00	0.0619	10.81	475.7	387.28	0.0492	351.1	6.319	12.58	4.58	1.52
	8.42	18.27	67.65	-0.00	0.0619	10.81	475.5	387.06	0.0493	350.9	6.317	12.57	4.57	1.52
	9.33	18.27	67.65	0.00	0.0621	10.84	477.2	388.41	0.0467	327.8	5.901	11.74	3.60	1.52
	10.33	18.27	67.65	0.00	0.0621	10.83	476.4	387.75	0.0472	334.9	6.028	11.99	3.91	1.52
	11.34	18.28	67.63	-0.00	0.0621	10.85	477.2	388.59	0.0464	321.9	5.794	11.53	3.35	1.52
	12.36	18.28	67.62	-0.00	0.0620	10.82	476.1	387.73	0.0464	325.7	5.862	11.67	3.51	1.52
	13.35	18.30	67.63	0.00	0.0621	10.85	477.3	388.66	0.0468	327.2	5.889	11.72	3.58	1.52
	14.35	18.32	67.65	0.00	0.0621	10.85	477.2	388.52	0.0469	328.2	5.908	11.76	3.62	1.52
	15.35	18.28	67.63	0.00	0.0620	10.83	476.3	387.85	0.0473	330.8	5.955	11.85	3.74	1.52
	16.33	18.30	67.63	0.00	0.0620	10.83	476.3	387.86	0.0478	338.5	6.093	12.13	4.06	1.52
	17.36	18.30	67.65	-0.00	0.0621	10.85	477.2	388.45	0.0477	336.1	6.050	12.04	3.96	1.52
	18.33	18.28	67.63	0.00	0.0620	10.84	477.1	388.48	0.0476	335.5	6.038	12.02	3.93	1.52
	19.34	18.30	67.63	-0.00	0.0621	10.85	477.2	388.61	0.0476	335.7	6.042	12.03	3.94	1.52
	20.34	18.30	67.65	-0.00	0.0619	10.81	475.5	387.08	0.0475	335.3	6.036	12.01	3.93	1.52
	21.34	18.32	67.65	0.00	0.0619	10.79	474.7	386.41	0.0475	332.0	5.975	11.89	3.79	1.52
	22.34	18.32	67.65	-0.00	0.0618	10.79	474.6	386.39	0.0474	335.1	6.032	12.00	3.92	1.52
	23.34	18.32	67.65	-0.00	0.0619	10.80	475.2	386.81	0.0479	337.4	6.073	12.09	4.02	1.52
	24.34	18.32	67.65	0.00	0.0618	10.79	474.7	386.47	0.0479	338.2	6.088	12.12	4.05	1.52
	25.33	18.30	67.65	-0.00	0.0619	10.79	474.7	386.46	0.0478	337.4	6.073	12.09	4.02	1.53
	26.33	18.33	67.63	0.00	0.0620	10.82	476.2	387.83	0.0480	339.6	6.114	12.17	4.11	1.52
	27.33	18.32	67.65	0.00	0.0620	10.81	475.7	387.29	0.0480	339.9	6.118	12.18	4.12	1.52
	28.34	18.33	67.58	0.00	0.0619	10.78	474.5	386.71	0.0478	338.6	6.094	12.14	4.07	1.52
	29.34	18.33	67.65	-0.00	0.0618	10.76	473.4	385.36	0.0479	337.8	6.081	12.10	4.04	1.52
	30.34	18.30	67.62	0.00	0.0618	10.76	473.5	385.59	0.0474	333.8	6.008	11.96	3.86	1.52
	31.42	18.33	67.63	-0.00	0.0620	10.78	474.4	386.37	0.0477	333.5	6.002	11.95	3.85	1.52
	32.35	18.33	67.63	-0.00	0.0619	10.79	474.6	386.52	0.0478	335.0	6.031	12.01	3.92	1.52
	33.34	18.35	67.62	0.00	0.0620	10.82	476.3	387.92	0.0480	339.4	6.109	12.16	4.10	1.52
	34.34	18.33	67.65	-0.00	0.0619	10.82	476.0	387.49	0.0478	339.1	6.104	12.15	4.09	1.52
	35.33	18.33	67.65	0.00	0.0619	10.79	474.6	386.40	0.0479	337.2	6.070	12.08	4.01	1.52
	36.33	18.33	67.65	-0.00	0.0620	10.80	475.3	386.97	0.0483	340.8	6.135	12.21	4.16	1.52
	37.35	18.36	67.65	-0.00	0.0620	10.82	476.1	387.65	0.0485	343.8	6.188	12.32	4.29	1.52
	38.33	18.35	67.63	-0.00	0.0619	10.80	475.3	387.12	0.0482	341.2	6.142	12.23	4.18	1.52
	39.34	18.36	67.65	0.00	0.0619	10.79	475.0	386.73	0.0482	340.8	6.135	12.21	4.16	1.52
	40.34	18.37	67.62	-0.00	0.0620	10.82	476.3	387.97	0.0485	344.1	6.193	12.33	4.30	1.52
	41.34	18.37	67.63	-0.00	0.0618	10.79	474.8	386.72	0.0482	342.3	6.161	12.27	4.22	1.52
	42.34	18.37	67.65	0.00	0.0619	10.80	475.4	387.03	0.0485	343.7	6.187	12.31	4.28	1.53
	43.34	18.38	67.65	-0.00	0.0619	10.81	475.5	387.19	0.0485	344.3	6.197	12.33	4.31	1.52
	44.34	18.38	67.65	0.00	0.0620	10.80	475.4	387.13	0.0489	346.4	6.234	12.41	4.39	1.52
	45.33	18.38	67.60	-0.00	0.0620	10.81	475.5	387.49	0.0489	347.5	6.255	12.46	4.44	1.52
	46.33	18.38	67.65	0.00	0.0620	10.83	476.3	387.85	0.0491	349.1	6.284	12.51	4.51	1.52
	47.33	18.40	67.63	0.00	0.0618	10.80	475.3	387.20	0.0487	346.5	6.237	12.42	4.40	1.52
	48.33	18.40	67.63	0.00	0.0617	10.77	474.0	386.14	0.0483	344.2	6.196	12.34	4.31	1.53
	49.33	18.38	67.63	-0.00	0.0619	10.78	474.3	386.35	0.0486	344.7	6.205	12.35	4.33	1.52
	50.34	18.36	67.60	0.00	0.0617	10.78	474.2	386.38	0.0489	347.8	6.261	12.47	4.45	1.52
	51.35	18.38	67.65	-0.00	0.0621	10.82	476.1	387.65	0.0491	349.9	6.299	12.54	4.54	1.52
	52.35	18.40	67.65	-0.00	0.0619	10.76	473.6	385.68	0.0490	346.6	6.239	12.42	4.40	1.52
	53.34	18.40	67.63	0.00	0.0618	10.78	474.4	386.44	0.0488	346.9	6.244	12.43	4.42	1.52
	54.35	18.41	67.60	0.00	0.0617	10.75	473.0	385.49	0.0489	348.9	6.281	12.51	4.50	1.53
	55.35	18.42	67.62	-0.00	0.0619	10.80	475.3	387.20	0.0493	351.7	6.331	12.61	4.61	1.53
	56.36	18.40	67.65	-0.00	0.0618	10.76	473.4	385.51	0.0491	349.8	6.296	12.53	4.53	1.52
	57.35	18.42	67.65	-0.00	0.0618	10.77	473.9	385.95	0.0492	350.4	6.307	12.56	4.56	1.52
	58.33	18.38	67.65	0.00	0.0619	10.79	474.7	386.54	0.0494	351.8	6.332	12.60	4.61	1.52
	59.41	18.43	67.65	0.00	0.0619	10.77	474.1	386.12	0.0494	351.9	6.334	12.61	4.62	1.52
	60.33	18.41	67.65	0.00	0.0618	10.77	473.8	385.83	0.0492	351.6	6.329	12.60	4.61	1.53
	61.34	18.40	67.63	-0.00	0.0620	10.82	475.9	387.71	0.0498	355.5	6.399	12.74	4.77	1.53
	62.34	18.40	67.63	-0.00	0.0618	10.77	473.9	386.05	0.0494	351.5	6.327	12.60	4.60	1.52
	63.37	18.40	67.65	-0.00	0.0617	10.75	473.2	385.34	0.0491	348.9	6.280	12.50	4.50	1.52
	64.35	18.42	67.65	-0.00	0.0617	10.74	472.4	384.68	0.0494	352.3	6.341	12.62	4.64	1.52
	65.35	18.41	67.65	-0.00	0.0616	10.73	472.3	384.64	0.0493	350.4	6.308	12.56	4.56	1.53
	66.41	18.43	67.62	0.00	0.0618	10.78	474.3	386.41	0.0497	355.3	6.396	12.74	4.76	1.53
	67.35	18.41	67.67	-0.00	0.0617	10.75	472.9	385.01	0.0497	356.6	6.419	12.77	4.81	1.53
	68.34	18.45	67.65	0.00	0.0619	10.77	474.1	386.11	0.0499	357.0	6.426	12.79	4.83	1.53
	69.33	18.45	67.65	0.00	0.0618	10.78	474.4	386.36	0.0499	356.2	6.411	12.76	4.80	1.53
	70.34	18.45	67.65	0.00	0.0618	10.76	473.5	385.62	0.0499	357.0	6.425	12.79	4.83	1.52
	71.34	18.46	67.65	-0.00	0.0615	10.70	470.7	383.42	0.0496	354.8	6.386	12.71	4.74	1.53
	72.34	18.45	67.60	0.00	0.0618	10.74	472.5	385.12	0.0495	351.8	6.332	12.62	4.62	1.53
	73.34	18.46	67.65	0.00	0.0618	10.75	473.0	385.26	0.0493	350.6	6.311	12.57	4.57	1.53
	74.35	18.45	67.65	-0.00	0.0617	10.75	473.1	385.34	0.0494	351.5	6.327	12.60	4.61	1.53
	75.33	18.46	67.65	-0.00	0.0617	10.76	473.6	385.71	0.0495	352.9	6.353	12.65	4.67	1.52
	76.35	18.48	67.65	-0.00	0.0618	10.76	473.6	385.82	0.0495	353.0	6.355	12.65	4.67	1.53
	77.34	18.48	67.63	-0.00	0.0617	10.73	472.3	384.85	0.0497	355.8	6.404	12.75	4.78	1.53
	78.34	18.48	67.65	-0.00	0.0616	10.72	471.9	384.39	0.0501	359.0	6.462	12.87	4.91	1.53
	79.34	18.48	67.65	0.00	0.0618	10.76	473.2	385.47	0.0504	361.7	6.511	12.96	5.02	1.53
	80.33	18.48	67.62	0.00	0.0617	10.75	472.9	385.35	0.0499	357.1	6.428	12.80	4.84	1.53
	81.35	18.48	67.63	-0.00	0.0620	10.77	474.0	386.23	0.0503	361.2	6.502	12.95	5.00	1.53
	82.34	18.50	67.63	-0.00	0.0617	10.75	473.0	385.44	0.0499	358.6	6.455	12.86	4.90	1.53
	83.32	18.50	67.65	0.00	0.0616	10.73	472.3	384.75	0.0496	353.9	6.371	12.69	4.71	1.53
	84.33	18.50	67.62	0.00	0.0616	10.73	472.2	384.84	0.0499	355.8	6.404	12.76	4.78	1.53
	85.33	18.50	67.62	0.00	0.0616	10.73	472.2	384.80	0.0494	353.1	6.355	12.66	4.67	1.53
	86.35	18.51	67.60	-0.00	0.0615	10.72	471.7	384.58	0.0493	351.3	6.324	12.60	4.60	1.53
	87.33	18.50	67.60	0.00	0.0615	10.71	471.1	384.06	0.0494	352.1	6.337	12.63	4.63	1.53
	88.36	18.50	67.65	-0.00	0.0616	10.74	472.4	384.84	0.0497	355.9	6.406	12.76	4.79	1.53
	89.34	18.50	67.63	-0.00	0.0616	10.74	472.5	385.01	0.0495	354.3	6.377	12.70	4.72	1.53
	90.34	18.53	67.65	0.00	0.0616	10.74	472.4	384.88	0.0499	358.0	6.444	12.83	4.87	1.53
	91.34	18.51	67.62	-0.00	0.0616	10.73	472.0	384.68	0.0501	357.6	6.437	12.82	4.86	1.53
	92.32	18.50	67.65	0.00	0.0618	10.77	474.1	386.20	0.0503	362.1	6.517	12.98	5.03	1.53
	93.33	18.51	67.65	0.00	0.0617	10.76	473.3	385.59	0.0507	364.7	6.564	13.07	5.14	1.53
	94.33	18.53	67.65	0.00	0.0618	10.75	473.0	385.35	0.0507	365.7	6.582	13.11	5.18	1.53
	95.35	18.51	67.65	0.00	0.0616	10.72	471.7	384.25	0.0506	362.9	6.533	13.01	5.07	1.53
	96.35	18.53	67.62	-0.00	0.0618	10.77	473.8	386.16	0.0507	365.0	6.571	13.09	5.15	1.53
	97.34	18.55	67.65	0.00	0.0618	10.77	473.7	385.92	0.0508	366.7	6.601	13.15	5.22	1.53
	98.34	18.55	67.62	-0.00	0.0619	10.78	474.3	386.59	0.0506	363.2	6.538	13.03	5.08	1.53
	99.36	18.55	67.65	-0.00	0.0616	10.73	472.1	384.59	0.0508	365.3	6.575	13.09	5.16	1.53
	100.34	18.53	67.65	-0.00	0.0616	10.75	473.1	385.40	0.0506	365.6	6.581	13.10	5.17	1.53
	101.32	18.56	67.65	0.00	0.0617	10.75	472.9	385.34	0.0509	366.9	6.604	13.15	5.23	1.53
	102.34	18.56	67.63	0.00	0.0617	10.76	473.3	385.72	0.0509	367.8	6.620	13.19	5.26	1.53
	103.33	18.55	67.65	-0.00	0.0618	10.77	474.0	386.14	0.0510	367.7	6.619	13.18	5.26	1.53
	104.35	18.58	67.65	-0.00	0.0618	10.78	474.5	386.64	0.0508	366.7	6.600	13.15	5.22	1.53
	105.39	18.56	67.63	0.00	0.0618	10.74	472.6	385.23	0.0506	363.4	6.541	13.03	5.09	1.53
	106.35	18.53	67.65	-0.00	0.0619	10.78	474.4	386.47	0.0507	365.3	6.575	13.09	5.16	1.53
	107.34	18.53	67.65	-0.00	0.0619	10.79	474.7	386.75	0.0507	365.6	6.582	13.11	5.18	1.53
	108.33	18.58	67.60	0.00	0.0617	10.76	473.7	386.24	0.0507	365.5	6.579	13.11	5.17	1.53
	109.34	18.56	67.65	0.00	0.0617	10.76	473.6	385.85	0.0507	364.8	6.567	13.08	5.15	1.53
	110.32	18.58	67.65	0.00	0.0618	10.77	473.9	386.13	0.0507	365.5	6.580	13.11	5.18	1.53
	111.35	18.60	67.65	-0.00	0.0617	10.76	473.2	385.62	0.0508	367.2	6.610	13.17	5.24	1.53
	112.32	18.60	67.63	0.00	0.0618	10.76	473.5	386.00	0.0507	366.7	6.601	13.15	5.22	1.53
	113.33	18.61	67.65	0.00	0.0617	10.75	473.2	385.60	0.0505	364.1	6.554	13.06	5.12	1.53
	114.33	18.61	67.65	0.00	0.0617	10.76	473.6	385.94	0.0505	364.0	6.551	13.05	5.11	1.53
	115.33	18.61	67.65	0.00	0.0615	10.71	471.4	384.16	0.0502	360.9	6.496	12.94	4.99	1.53
	116.33	18.61	67.63	-0.00	0.0617	10.74	472.3	385.04	0.0505	362.5	6.524	13.00	5.06	1.53
	117.36	18.58	67.62	-0.00	0.0615	10.72	471.5	384.33	0.0504	362.7	6.528	13.01	5.06	1.53
	118.34	18.61	67.62	0.00	0.0616	10.71	471.2	384.13	0.0504	363.3	6.539	13.03	5.09	1.53
	119.33	18.60	67.65	0.00	0.0615	10.71	471.1	383.88	0.0505	364.6	6.563	13.07	5.14	1.53
	120.34	18.61	67.65	0.00	0.0619	10.75	473.0	385.49	0.0509	366.7	6.601	13.15	5.22	1.53
