Jul 28 2015 at 15:53:01
Frequency: 1.00Hz.
CO2
Zero:  Value:0.95  Date:18 Mar 2005	 at 07:22:33	
Span:  Value:1.00  Date:18 Mar 2005	 at 07:25:09	
H2O
Zero:  Value:0.71  Date:18 Mar 2005	 at 07:52:31	
Span:  Value:0.99  Date:18 Mar 2005	 at 11:44:01	
	Relative Time	Temperature	Pressure	Aux Input	CO2 Absorptance	CO2 mmol/m3	CO2 mg/m3	CO2 umol/mol	H2O Absorptance	H2O mmol/m3	H2O g/m3	H2O mmol/mol	H2O(°C)	Cooler Voltage
	0.34	31.57	66.89	-0.00	0.0611	10.62	467.1	402.08	0.0447	308.5	5.552	11.68	3.38	1.61
	1.34	31.57	66.90	-0.00	0.0612	10.64	468.3	403.09	0.0435	301.1	5.419	11.40	3.03	1.61
	2.34	31.53	66.89	0.00	0.0612	10.64	468.0	402.81	0.0444	306.1	5.509	11.59	3.26	1.61
	3.34	31.56	66.85	0.00	0.0612	10.66	469.1	404.09	0.0440	300.7	5.412	11.40	3.01	1.61
	4.42	31.57	66.92	0.00	0.0609	10.62	467.5	402.22	0.0436	299.8	5.396	11.35	2.97	1.61
	5.35	31.55	66.89	-0.00	0.0609	10.62	467.1	402.06	0.0440	302.8	5.450	11.47	3.11	1.61
	6.35	31.60	66.89	-0.00	0.0609	10.58	465.4	400.65	0.0433	297.2	5.350	11.26	2.85	1.61
	7.33	31.52	66.87	-0.00	0.0609	10.62	467.3	402.35	0.0437	298.7	5.377	11.32	2.92	1.61
	8.35	31.56	66.90	-0.00	0.0608	10.59	465.8	400.89	0.0439	301.9	5.434	11.43	3.07	1.61
	9.34	31.57	66.89	0.00	0.0609	10.61	467.0	401.93	0.0436	298.7	5.376	11.31	2.92	1.61
	10.34	31.54	66.89	0.00	0.0610	10.62	467.5	402.34	0.0435	297.3	5.351	11.26	2.85	1.61
	11.40	31.56	66.89	0.00	0.0613	10.68	469.9	404.41	0.0441	302.6	5.447	11.46	3.11	1.61
	12.36	31.59	66.90	-0.00	0.0614	10.71	471.3	405.70	0.0450	310.5	5.589	11.76	3.47	1.61
	13.34	31.59	66.87	0.00	0.0612	10.67	469.6	404.38	0.0447	310.9	5.596	11.78	3.49	1.61
	14.34	31.66	66.94	0.00	0.0614	10.70	470.9	405.17	0.0440	302.6	5.446	11.45	3.11	1.61
	15.32	31.59	66.89	0.00	0.0611	10.67	469.5	404.17	0.0440	303.1	5.455	11.48	3.13	1.61
	16.33	31.59	66.87	0.00	0.0612	10.65	468.7	403.58	0.0450	309.7	5.574	11.73	3.43	1.61
	17.43	31.57	66.89	0.00	0.0613	10.67	469.4	404.02	0.0450	309.5	5.571	11.72	3.42	1.61
	18.41	31.59	66.89	0.00	0.0612	10.69	470.5	404.97	0.0452	315.1	5.671	11.93	3.68	1.61
	19.34	31.58	66.87	-0.00	0.0612	10.68	469.9	404.59	0.0456	318.8	5.738	12.08	3.84	1.61
	20.34	31.59	66.89	0.00	0.0611	10.67	469.5	404.11	0.0457	319.1	5.744	12.09	3.86	1.61
	21.34	31.58	66.87	-0.00	0.0610	10.65	468.7	403.61	0.0455	317.0	5.705	12.01	3.76	1.61
	22.34	31.59	66.89	-0.00	0.0611	10.64	468.0	402.82	0.0459	318.5	5.733	12.06	3.83	1.61
	23.35	31.59	66.89	-0.00	0.0611	10.63	467.7	402.61	0.0464	320.2	5.763	12.13	3.91	1.61
	24.35	31.59	66.89	-0.00	0.0609	10.62	467.2	402.17	0.0467	326.8	5.883	12.38	4.20	1.61
	25.32	31.59	66.87	0.00	0.0610	10.62	467.1	402.20	0.0472	331.7	5.970	12.57	4.41	1.61
	26.32	31.64	66.87	0.00	0.0611	10.65	468.7	403.67	0.0470	332.5	5.984	12.60	4.44	1.61
	27.35	31.64	66.92	0.00	0.0610	10.63	467.6	402.39	0.0466	328.2	5.908	12.43	4.26	1.61
	28.34	31.60	66.92	0.00	0.0609	10.61	466.8	401.67	0.0474	332.8	5.991	12.60	4.46	1.61
	29.34	31.62	66.89	-0.00	0.0609	10.60	466.3	401.41	0.0475	333.5	6.004	12.63	4.49	1.61
	30.34	31.61	66.89	0.00	0.0608	10.57	465.0	400.26	0.0480	339.7	6.115	12.87	4.75	1.61
	31.42	31.61	66.89	-0.00	0.0605	10.52	462.8	398.39	0.0499	358.5	6.452	13.58	5.52	1.61
	32.34	31.59	66.87	-0.00	0.0604	10.49	461.7	397.57	0.0493	359.3	6.468	13.61	5.56	1.61
	33.34	31.65	66.87	0.00	0.0607	10.56	464.7	400.20	0.0492	351.5	6.327	13.32	5.24	1.61
	34.34	31.61	66.89	0.00	0.0607	10.57	465.1	400.38	0.0493	354.0	6.373	13.41	5.34	1.61
	35.33	31.63	66.90	0.00	0.0606	10.55	464.2	399.61	0.0493	352.6	6.347	13.36	5.29	1.61
	36.32	31.63	66.89	0.00	0.0606	10.54	463.8	399.30	0.0497	355.7	6.403	13.47	5.41	1.61
	37.35	31.63	66.89	-0.00	0.0606	10.51	462.5	398.17	0.0497	357.0	6.425	13.52	5.46	1.61
	38.33	31.65	66.90	0.00	0.0608	10.58	465.4	400.69	0.0498	359.0	6.462	13.60	5.54	1.61
	39.33	31.63	66.90	-0.00	0.0606	10.54	463.7	399.21	0.0514	377.8	6.801	14.31	6.28	1.61
	40.34	31.65	66.87	0.00	0.0605	10.54	463.6	399.30	0.0513	374.0	6.732	14.17	6.14	1.61
	41.34	31.64	66.87	0.00	0.0603	10.48	461.1	397.14	0.0525	382.0	6.877	14.48	6.44	1.61
	42.34	31.63	66.89	-0.00	0.0605	10.52	462.7	398.35	0.0522	383.3	6.900	14.52	6.49	1.61
	43.35	31.63	66.89	-0.00	0.0606	10.53	463.3	398.84	0.0520	381.1	6.861	14.44	6.41	1.61
	44.35	31.63	66.89	-0.00	0.0605	10.50	462.1	397.84	0.0524	380.6	6.850	14.42	6.39	1.61
	45.33	31.63	66.89	0.00	0.0604	10.45	459.9	395.93	0.0533	389.8	7.017	14.77	6.74	1.61
	46.35	31.63	66.87	-0.00	0.0607	10.57	464.9	400.41	0.0517	378.7	6.816	14.35	6.32	1.61
	47.33	31.63	66.87	0.00	0.0604	10.53	463.1	398.88	0.0518	377.0	6.785	14.28	6.25	1.61
	48.34	31.63	66.89	-0.00	0.0603	10.49	461.4	397.28	0.0523	383.0	6.894	14.51	6.48	1.61
	49.34	31.63	66.89	0.00	0.0602	10.45	459.8	395.84	0.0525	384.6	6.922	14.57	6.54	1.61
	50.33	31.66	66.92	0.00	0.0604	10.47	460.8	396.57	0.0526	386.9	6.965	14.65	6.63	1.61
	51.32	31.68	66.87	0.00	0.0602	10.45	459.8	396.02	0.0528	390.3	7.025	14.79	6.76	1.61
	52.34	31.63	66.89	0.00	0.0603	10.47	460.8	396.68	0.0528	389.6	7.013	14.76	6.73	1.61
	53.32	31.65	66.87	0.00	0.0604	10.47	460.9	396.93	0.0527	386.3	6.953	14.64	6.61	1.61
	54.34	31.63	66.89	-0.00	0.0604	10.50	461.8	397.59	0.0529	389.1	7.004	14.74	6.71	1.61
	55.35	31.66	66.87	-0.00	0.0604	10.49	461.5	397.50	0.0537	400.1	7.202	15.16	7.12	1.61
	56.43	31.64	66.87	-0.00	0.0602	10.44	459.4	395.65	0.0553	412.2	7.419	15.62	7.55	1.61
	57.35	31.63	66.89	-0.00	0.0605	10.53	463.4	398.99	0.0535	396.7	7.140	15.03	6.99	1.61
	58.34	31.62	66.89	-0.00	0.0604	10.49	461.4	397.24	0.0545	405.9	7.307	15.38	7.33	1.61
	59.42	31.65	66.87	-0.00	0.0602	10.42	458.5	394.90	0.0532	394.5	7.102	14.95	6.91	1.61
	60.34	31.65	66.89	-0.00	0.0603	10.45	459.9	395.96	0.0534	393.7	7.086	14.91	6.88	1.61
	61.34	31.64	66.87	0.00	0.0605	10.51	462.3	398.19	0.0531	394.1	7.094	14.94	6.90	1.61
	62.34	31.67	66.88	0.00	0.0603	10.50	461.8	397.73	0.0537	398.6	7.174	15.10	7.06	1.61
	63.34	31.66	66.89	0.00	0.0602	10.44	459.1	395.31	0.0537	398.9	7.180	15.11	7.07	1.61
	64.41	31.67	66.89	0.00	0.0604	10.49	461.4	397.32	0.0528	388.2	6.987	14.71	6.68	1.61
	65.33	31.67	66.87	0.00	0.0602	10.47	460.6	396.74	0.0532	390.1	7.021	14.78	6.75	1.61
	66.33	31.70	66.89	0.00	0.0603	10.46	460.2	396.31	0.0541	401.4	7.225	15.21	7.17	1.61
	67.35	31.70	66.91	-0.00	0.0600	10.42	458.3	394.52	0.0556	419.4	7.549	15.89	7.81	1.61
	68.33	31.67	66.87	0.00	0.0603	10.49	461.5	397.52	0.0548	410.9	7.395	15.57	7.51	1.61
	69.34	31.65	66.91	-0.00	0.0602	10.47	460.7	396.52	0.0548	409.4	7.369	15.50	7.45	1.61
	70.34	31.67	66.87	0.00	0.0601	10.41	458.2	394.66	0.0549	408.0	7.344	15.46	7.40	1.61
	71.34	31.67	66.87	-0.00	0.0601	10.42	458.5	394.96	0.0557	417.4	7.513	15.82	7.74	1.61
	72.34	31.65	66.89	-0.00	0.0601	10.44	459.2	395.34	0.0561	421.9	7.594	15.98	7.89	1.61
	73.35	31.66	66.89	0.00	0.0600	10.36	456.0	392.67	0.0562	425.7	7.663	16.13	8.03	1.61
	74.33	31.66	66.87	0.00	0.0603	10.44	459.3	395.62	0.0557	421.2	7.582	15.96	7.87	1.61
	75.35	31.67	66.89	-0.00	0.0603	10.46	460.0	396.11	0.0559	419.8	7.556	15.90	7.82	1.61
	76.36	31.67	66.87	-0.00	0.0602	10.44	459.5	395.77	0.0558	420.2	7.563	15.93	7.84	1.61
	77.34	31.67	66.87	0.00	0.0603	10.48	461.1	397.12	0.0556	417.3	7.511	15.81	7.73	1.61
	78.34	31.72	66.92	-0.00	0.0603	10.47	460.7	396.61	0.0554	416.6	7.499	15.78	7.71	1.61
	79.33	31.72	66.87	0.00	0.0602	10.46	460.3	396.54	0.0556	417.9	7.522	15.84	7.76	1.61
	80.34	31.69	66.87	0.00	0.0601	10.45	459.8	396.12	0.0555	417.1	7.508	15.81	7.73	1.61
	81.32	31.67	66.87	0.00	0.0600	10.41	458.0	394.46	0.0555	417.9	7.523	15.84	7.76	1.61
	82.34	31.67	66.92	-0.00	0.0601	10.39	457.3	393.60	0.0556	420.2	7.563	15.91	7.84	1.61
	83.35	31.67	66.87	-0.00	0.0600	10.43	459.0	395.35	0.0551	413.2	7.437	15.66	7.59	1.61
	84.33	31.67	66.87	0.00	0.0602	10.43	459.0	395.39	0.0550	412.1	7.418	15.62	7.55	1.61
	85.32	31.69	66.87	0.00	0.0601	10.44	459.4	395.76	0.0551	412.6	7.427	15.64	7.57	1.61
	86.35	31.65	66.89	0.00	0.0601	10.43	458.9	395.10	0.0551	411.8	7.412	15.60	7.54	1.61
	87.34	31.66	66.87	0.00	0.0601	10.42	458.6	395.01	0.0553	414.1	7.454	15.69	7.62	1.61
	88.33	31.67	66.87	0.00	0.0601	10.42	458.5	394.90	0.0556	417.7	7.519	15.83	7.75	1.61
	89.34	31.67	66.87	0.00	0.0601	10.43	459.0	395.40	0.0556	416.9	7.503	15.80	7.72	1.61
	90.34	31.70	66.87	0.00	0.0600	10.41	458.0	394.49	0.0558	420.7	7.573	15.95	7.86	1.61
	91.34	31.67	66.87	0.00	0.0599	10.37	456.5	393.19	0.0560	421.6	7.589	15.98	7.89	1.61
	92.32	31.67	66.89	0.00	0.0601	10.40	457.7	394.13	0.0562	423.6	7.625	16.05	7.96	1.61
	93.35	31.67	66.87	-0.00	0.0600	10.40	457.5	394.08	0.0561	422.9	7.612	16.03	7.93	1.61
	94.33	31.67	66.89	0.00	0.0601	10.41	458.1	394.49	0.0560	422.0	7.596	15.99	7.90	1.61
	95.35	31.67	66.87	-0.00	0.0601	10.43	458.9	395.26	0.0561	422.7	7.609	16.02	7.92	1.61
	96.33	31.66	66.87	0.00	0.0600	10.41	458.0	394.53	0.0559	421.3	7.584	15.97	7.87	1.61
	97.34	31.67	66.87	0.00	0.0601	10.40	457.8	394.29	0.0560	422.1	7.598	16.00	7.90	1.61
	98.34	31.67	66.87	-0.00	0.0601	10.43	459.0	395.37	0.0561	422.3	7.602	16.00	7.91	1.61
	99.33	31.67	66.89	0.00	0.0603	10.45	459.6	395.77	0.0562	422.1	7.598	15.99	7.90	1.60
	100.32	31.67	66.92	0.00	0.0603	10.47	460.7	396.56	0.0562	422.6	7.607	16.01	7.92	1.61
	101.34	31.70	66.89	0.00	0.0603	10.48	461.0	396.94	0.0561	423.8	7.629	16.06	7.96	1.61
	102.40	31.66	66.89	0.00	0.0602	10.44	459.5	395.69	0.0563	424.0	7.632	16.07	7.97	1.61
	103.35	31.67	66.87	-0.00	0.0602	10.47	460.5	396.66	0.0563	425.2	7.654	16.12	8.01	1.61
	104.33	31.68	66.87	0.00	0.0602	10.44	459.2	395.56	0.0563	424.9	7.649	16.11	8.00	1.61
	105.35	31.67	66.87	0.00	0.0601	10.42	458.4	394.81	0.0564	427.0	7.686	16.18	8.07	1.61
	106.33	31.70	66.87	0.00	0.0602	10.45	459.7	396.04	0.0568	430.1	7.741	16.30	8.18	1.61
	107.33	31.65	66.89	0.00	0.0602	10.44	459.3	395.48	0.0567	429.3	7.728	16.26	8.15	1.61
	108.42	31.65	66.87	-0.00	0.0603	10.45	459.8	396.00	0.0565	428.1	7.707	16.23	8.11	1.61
	109.40	31.61	66.89	0.00	0.0601	10.44	459.2	395.33	0.0565	426.8	7.683	16.17	8.06	1.61
	110.32	31.65	66.89	0.00	0.0602	10.44	459.2	395.37	0.0566	426.9	7.684	16.17	8.07	1.61
	111.35	31.65	66.87	-0.00	0.0602	10.45	459.9	396.10	0.0568	430.2	7.743	16.30	8.18	1.61
	112.34	31.65	66.89	0.00	0.0602	10.46	460.1	396.13	0.0568	429.6	7.733	16.28	8.16	1.61
	113.33	31.64	66.89	-0.00	0.0603	10.45	459.8	395.86	0.0573	433.9	7.810	16.44	8.31	1.61
	114.35	31.63	66.87	-0.00	0.0602	10.45	459.9	396.02	0.0570	433.6	7.805	16.43	8.30	1.61
	115.33	31.67	66.87	0.00	0.0603	10.45	459.8	396.01	0.0570	431.5	7.766	16.35	8.23	1.61
	116.33	31.64	66.89	0.00	0.0603	10.45	459.7	395.76	0.0570	431.5	7.767	16.35	8.22	1.61
	117.33	31.69	66.87	0.00	0.0603	10.47	460.5	396.70	0.0571	435.9	7.846	16.52	8.38	1.61
	118.34	31.69	66.89	0.00	0.0604	10.47	460.8	396.79	0.0571	435.5	7.839	16.50	8.36	1.61
	119.34	31.73	66.87	0.00	0.0604	10.48	461.0	397.12	0.0571	434.2	7.816	16.46	8.32	1.61
