Jul 28 2015 at 12:58:51
Frequency: 1.00Hz.
CO2
Zero:  Value:0.95  Date:18 Mar 2005	 at 07:22:33	
Span:  Value:1.00  Date:18 Mar 2005	 at 07:25:09	
H2O
Zero:  Value:0.71  Date:18 Mar 2005	 at 07:52:31	
Span:  Value:0.99  Date:18 Mar 2005	 at 11:44:01	
	Relative Time	Temperature	Pressure	Aux Input	CO2 Absorptance	CO2 mmol/m3	CO2 mg/m3	CO2 umol/mol	H2O Absorptance	H2O mmol/m3	H2O g/m3	H2O mmol/mol	H2O(°C)	Cooler Voltage
	0.62	32.01	67.68	-0.00	0.0614	10.72	471.5	401.73	0.0427	292.2	5.259	10.95	2.63	1.62
	1.61	32.01	67.70	0.00	0.0616	10.73	472.2	402.19	0.0427	290.9	5.236	10.90	2.57	1.62
	2.62	32.05	67.72	0.00	0.0615	10.69	470.4	400.55	0.0432	292.5	5.265	10.96	2.65	1.62
	3.62	32.08	67.70	0.00	0.0613	10.68	469.7	400.16	0.0431	293.6	5.286	11.01	2.70	1.62
	4.62	32.10	67.70	0.00	0.0613	10.65	468.6	399.24	0.0430	291.3	5.244	10.92	2.59	1.62
	5.60	32.05	67.70	0.00	0.0612	10.64	467.9	398.62	0.0444	300.9	5.416	11.28	3.05	1.62
	6.62	32.12	67.70	0.00	0.0611	10.62	467.4	398.24	0.0468	325.4	5.858	12.20	4.16	1.62
	7.60	32.11	67.65	0.00	0.0614	10.68	469.9	400.65	0.0473	332.7	5.988	12.48	4.47	1.62
	8.63	32.14	67.72	-0.00	0.0614	10.69	470.3	400.56	0.0478	337.0	6.065	12.63	4.66	1.62
	9.67	32.11	67.70	0.00	0.0615	10.71	471.3	401.53	0.0471	327.6	5.896	12.28	4.25	1.62
	10.62	32.13	67.70	-0.00	0.0614	10.69	470.2	400.60	0.0450	311.1	5.600	11.66	3.52	1.62
	11.61	32.11	67.72	0.00	0.0616	10.70	470.9	401.06	0.0444	305.4	5.496	11.44	3.26	1.62
	12.61	32.10	67.70	0.00	0.0615	10.71	471.2	401.40	0.0446	305.8	5.504	11.46	3.28	1.62
	13.62	32.03	67.70	-0.00	0.0615	10.70	470.9	401.12	0.0445	306.6	5.519	11.49	3.31	1.62
	14.62	32.03	67.65	-0.00	0.0614	10.70	471.0	401.49	0.0446	306.5	5.517	11.50	3.31	1.62
	15.62	32.06	67.70	-0.00	0.0614	10.69	470.4	400.72	0.0448	308.0	5.544	11.54	3.38	1.62
	16.58	32.06	67.75	0.00	0.0615	10.68	469.9	400.03	0.0446	305.6	5.500	11.45	3.26	1.62
	17.61	32.01	67.70	0.00	0.0615	10.70	470.8	401.01	0.0446	306.8	5.523	11.50	3.32	1.62
	18.61	32.05	67.68	0.00	0.0615	10.70	470.6	401.05	0.0447	308.6	5.555	11.57	3.41	1.62
	19.61	32.10	67.70	0.00	0.0616	10.70	470.8	401.10	0.0453	310.7	5.592	11.65	3.50	1.62
	20.69	32.12	67.70	-0.00	0.0615	10.69	470.4	400.77	0.0456	314.0	5.651	11.77	3.65	1.62
	21.61	32.08	67.72	0.00	0.0615	10.71	471.2	401.30	0.0456	315.1	5.672	11.81	3.70	1.62
	22.62	32.07	67.72	-0.00	0.0617	10.74	472.5	402.40	0.0474	330.0	5.941	12.37	4.36	1.62
	23.62	32.13	67.72	-0.00	0.0617	10.72	471.6	401.67	0.0468	323.8	5.829	12.14	4.09	1.62
	24.60	32.11	67.70	0.00	0.0618	10.79	474.7	404.45	0.0466	326.8	5.882	12.25	4.22	1.62
	25.62	32.16	67.70	-0.00	0.0618	10.76	473.6	403.58	0.0463	324.0	5.833	12.15	4.10	1.62
	26.60	32.18	67.70	0.00	0.0619	10.77	474.0	403.95	0.0460	320.4	5.766	12.01	3.94	1.62
	27.60	32.11	67.73	-0.00	0.0619	10.81	475.7	405.14	0.0460	319.9	5.758	11.99	3.92	1.62
	28.61	32.09	67.70	0.00	0.0618	10.79	474.6	404.34	0.0458	318.1	5.725	11.92	3.83	1.62
	29.61	32.05	67.65	0.00	0.0620	10.82	476.2	405.98	0.0459	319.4	5.748	11.98	3.89	1.62
	30.61	31.99	67.70	0.00	0.0622	10.83	476.3	405.67	0.0460	318.7	5.737	11.94	3.86	1.62
	31.62	31.97	67.75	0.00	0.0620	10.79	474.8	404.08	0.0458	317.3	5.712	11.88	3.80	1.62
	32.59	31.93	67.72	0.00	0.0620	10.82	476.2	405.31	0.0459	318.3	5.730	11.92	3.84	1.62
	33.60	31.95	67.72	0.00	0.0622	10.85	477.3	406.28	0.0460	320.4	5.767	12.00	3.93	1.62
	34.60	31.94	67.73	0.00	0.0620	10.81	475.8	404.96	0.0458	317.7	5.718	11.90	3.81	1.62
	35.60	31.89	67.70	0.00	0.0620	10.80	475.1	404.51	0.0460	320.6	5.771	12.01	3.94	1.63
	36.61	31.86	67.72	0.00	0.0618	10.80	475.0	404.22	0.0462	321.7	5.790	12.04	3.98	1.62
	37.61	31.84	67.70	-0.00	0.0619	10.79	474.9	404.21	0.0461	321.8	5.792	12.05	3.99	1.62
	38.61	31.71	67.70	0.00	0.0619	10.77	473.9	403.19	0.0463	322.1	5.797	12.06	3.99	1.62
	39.59	31.75	67.70	0.00	0.0623	10.87	478.3	407.00	0.0470	329.3	5.927	12.33	4.31	1.62
	40.62	31.72	67.70	-0.00	0.0625	10.91	480.1	408.52	0.0476	335.1	6.033	12.55	4.56	1.63
	41.61	31.76	67.73	0.00	0.0624	10.90	479.5	407.88	0.0474	332.2	5.979	12.43	4.44	1.63
	42.62	31.66	67.70	-0.00	0.0623	10.87	478.3	406.86	0.0475	333.4	6.000	12.48	4.48	1.62
	43.70	31.66	67.72	-0.00	0.0621	10.86	477.6	406.19	0.0473	334.2	6.015	12.50	4.52	1.62
	44.62	31.59	67.72	-0.00	0.0620	10.82	476.0	404.67	0.0473	330.9	5.956	12.38	4.37	1.62
	45.62	31.60	67.72	-0.00	0.0619	10.79	474.8	403.68	0.0469	327.9	5.902	12.27	4.24	1.62
	46.60	31.62	67.70	0.00	0.0620	10.83	476.6	405.34	0.0467	327.3	5.891	12.25	4.22	1.63
	47.61	31.66	67.70	-0.00	0.0618	10.78	474.3	403.52	0.0465	325.6	5.861	12.19	4.15	1.63
	48.61	31.66	67.72	0.00	0.0619	10.77	473.9	402.99	0.0469	327.7	5.899	12.26	4.24	1.62
	49.61	31.67	67.70	0.00	0.0617	10.77	473.7	402.97	0.0470	327.9	5.902	12.27	4.25	1.62
	50.61	31.66	67.70	0.00	0.0619	10.78	474.4	403.57	0.0469	327.7	5.899	12.27	4.24	1.62
	51.62	31.69	67.70	-0.00	0.0620	10.83	476.3	405.26	0.0473	333.3	5.999	12.48	4.48	1.62
	52.60	31.75	67.70	0.00	0.0620	10.80	475.3	404.44	0.0474	331.8	5.973	12.43	4.42	1.63
	53.60	31.82	67.72	0.00	0.0620	10.81	475.8	404.81	0.0474	336.6	6.059	12.60	4.63	1.63
	54.62	31.83	67.70	-0.00	0.0621	10.84	477.0	406.02	0.0478	337.0	6.066	12.62	4.65	1.62
	55.62	31.86	67.72	-0.00	0.0620	10.80	475.2	404.37	0.0476	335.2	6.033	12.55	4.57	1.62
	56.61	31.85	67.72	0.00	0.0620	10.81	475.4	404.57	0.0478	335.6	6.041	12.57	4.59	1.62
	57.61	31.83	67.70	0.00	0.0622	10.86	478.0	406.89	0.0480	337.9	6.081	12.65	4.68	1.63
	58.61	31.84	67.70	0.00	0.0620	10.83	476.6	405.70	0.0476	337.2	6.070	12.63	4.66	1.63
	59.61	31.92	67.70	0.00	0.0621	10.83	476.4	405.60	0.0478	337.2	6.070	12.63	4.66	1.63
	60.61	31.91	67.72	-0.00	0.0620	10.83	476.5	405.56	0.0474	333.7	6.006	12.50	4.51	1.62
	61.60	31.89	67.70	0.00	0.0620	10.82	476.0	405.25	0.0468	327.3	5.892	12.26	4.23	1.63
	62.60	31.92	67.72	-0.00	0.0624	10.86	477.6	406.53	0.0473	329.1	5.924	12.33	4.31	1.63
	63.62	31.89	67.70	-0.00	0.0622	10.84	476.9	406.03	0.0472	329.6	5.933	12.35	4.33	1.63
	64.66	31.89	67.70	0.00	0.0623	10.89	479.1	407.91	0.0473	332.6	5.987	12.46	4.46	1.63
	65.63	31.87	67.65	-0.00	0.0621	10.85	477.6	406.91	0.0470	330.3	5.945	12.38	4.36	1.63
	66.61	31.89	67.70	0.00	0.0622	10.85	477.3	406.38	0.0470	329.7	5.934	12.35	4.33	1.62
	67.61	31.92	67.72	0.00	0.0623	10.88	478.5	407.28	0.0472	330.8	5.954	12.39	4.39	1.63
	68.61	31.95	67.70	0.00	0.0622	10.88	478.7	407.64	0.0470	330.9	5.956	12.40	4.39	1.63
	69.62	31.97	67.70	-0.00	0.0623	10.89	479.2	408.05	0.0471	330.6	5.950	12.39	4.38	1.63
	70.62	32.01	67.73	-0.00	0.0623	10.88	478.8	407.66	0.0470	330.1	5.942	12.36	4.36	1.63
	71.68	32.05	67.70	0.00	0.0624	10.91	480.0	408.88	0.0472	331.8	5.972	12.44	4.43	1.63
	72.60	32.12	67.68	0.00	0.0623	10.88	478.6	407.96	0.0472	331.0	5.958	12.41	4.40	1.63
	73.60	32.11	67.70	0.00	0.0623	10.88	478.6	407.73	0.0473	331.3	5.963	12.42	4.41	1.63
	74.62	32.14	67.72	0.00	0.0624	10.88	478.5	407.59	0.0473	331.3	5.963	12.42	4.42	1.63
	75.61	32.13	67.68	-0.00	0.0623	10.88	478.9	408.22	0.0472	331.6	5.969	12.44	4.43	1.63
	76.61	32.14	67.65	-0.00	0.0622	10.86	477.9	407.51	0.0472	331.9	5.974	12.45	4.44	1.63
	77.61	32.09	67.75	0.00	0.0621	10.84	477.1	406.21	0.0470	330.7	5.953	12.39	4.39	1.63
	78.61	32.09	67.70	-0.00	0.0624	10.90	479.5	408.50	0.0475	334.1	6.015	12.53	4.54	1.63
	79.61	32.14	67.70	-0.00	0.0623	10.87	478.2	407.46	0.0474	333.0	5.994	12.48	4.49	1.63
	80.61	32.14	67.70	0.00	0.0622	10.84	477.1	406.49	0.0473	331.5	5.968	12.43	4.43	1.63
	81.62	32.11	67.70	0.00	0.0623	10.88	478.5	407.69	0.0475	333.4	6.001	12.50	4.51	1.63
	82.62	32.11	67.72	0.00	0.0622	10.86	477.7	406.85	0.0473	332.2	5.979	12.45	4.45	1.63
	83.62	32.13	67.73	0.00	0.0622	10.84	476.9	406.19	0.0472	330.9	5.957	12.40	4.40	1.63
	84.61	32.09	67.70	0.00	0.0622	10.85	477.3	406.66	0.0471	330.9	5.956	12.40	4.40	1.63
	85.61	32.10	67.72	0.00	0.0621	10.83	476.7	406.01	0.0470	329.6	5.933	12.35	4.34	1.63
	86.63	32.05	67.72	0.00	0.0622	10.80	475.4	404.83	0.0471	328.3	5.910	12.30	4.28	1.63
	87.61	32.05	67.70	-0.00	0.0621	10.84	476.9	406.25	0.0468	327.3	5.891	12.27	4.24	1.63
	88.61	32.06	67.68	-0.00	0.0620	10.83	476.5	406.01	0.0467	327.7	5.899	12.29	4.26	1.63
	89.61	32.05	67.72	0.00	0.0622	10.85	477.4	406.52	0.0467	327.5	5.895	12.27	4.25	1.63
	90.61	32.05	67.70	-0.00	0.0620	10.81	475.7	405.20	0.0467	326.4	5.874	12.23	4.20	1.63
	91.62	32.05	67.72	-0.00	0.0620	10.84	477.1	406.24	0.0465	325.5	5.859	12.19	4.16	1.63
	92.59	32.05	67.70	0.00	0.0621	10.83	476.7	406.06	0.0464	323.2	5.817	12.11	4.06	1.63
	93.60	32.09	67.72	0.00	0.0621	10.84	476.9	406.18	0.0467	324.7	5.844	12.17	4.13	1.63
	94.61	32.10	67.75	0.00	0.0621	10.84	476.8	405.91	0.0468	327.8	5.900	12.28	4.26	1.63
	95.60	32.12	67.70	0.00	0.0621	10.83	476.7	406.17	0.0467	325.7	5.862	12.21	4.17	1.63
	96.61	32.08	67.72	-0.00	0.0620	10.81	475.6	405.01	0.0465	324.6	5.843	12.16	4.12	1.63
	97.59	32.04	67.65	0.00	0.0620	10.80	475.2	405.04	0.0464	323.2	5.817	12.12	4.06	1.63
	98.61	32.03	67.70	0.00	0.0618	10.78	474.1	403.88	0.0462	321.6	5.789	12.05	3.99	1.63
	99.59	32.09	67.73	0.00	0.0619	10.78	474.3	403.91	0.0462	322.4	5.804	12.08	4.03	1.63
	100.61	32.03	67.68	0.00	0.0619	10.80	475.1	404.81	0.0464	323.9	5.830	12.14	4.09	1.63
	101.59	32.02	67.70	0.00	0.0618	10.77	473.7	403.47	0.0463	322.3	5.801	12.08	4.02	1.63
	102.62	32.01	67.68	0.00	0.0618	10.76	473.5	403.45	0.0463	323.4	5.821	12.12	4.07	1.63
	103.60	32.04	67.68	0.00	0.0616	10.73	471.9	402.12	0.0463	323.5	5.822	12.13	4.07	1.63
	104.63	32.08	67.65	-0.00	0.0616	10.73	472.1	402.46	0.0463	322.9	5.812	12.11	4.05	1.63
	105.61	32.07	67.68	-0.00	0.0618	10.75	473.1	403.17	0.0466	325.8	5.864	12.22	4.17	1.63
	106.61	32.10	67.68	-0.00	0.0617	10.73	472.1	402.38	0.0464	324.1	5.833	12.15	4.10	1.63
	107.61	32.07	67.70	0.00	0.0618	10.77	473.9	403.75	0.0465	325.4	5.857	12.20	4.16	1.63
	108.61	32.07	67.70	-0.00	0.0619	10.77	473.9	403.69	0.0466	324.8	5.846	12.17	4.13	1.63
	109.61	32.11	67.70	0.00	0.0618	10.77	473.7	403.58	0.0465	324.7	5.845	12.17	4.13	1.63
	110.61	32.07	67.70	-0.00	0.0617	10.75	473.0	402.95	0.0464	324.1	5.834	12.15	4.10	1.63
	111.62	32.09	67.68	-0.00	0.0618	10.76	473.6	403.67	0.0464	324.2	5.836	12.16	4.11	1.63
	112.60	32.12	67.68	-0.00	0.0618	10.76	473.3	403.42	0.0465	323.9	5.830	12.15	4.09	1.63
	113.60	32.11	67.70	0.00	0.0618	10.79	474.9	404.57	0.0465	325.1	5.852	12.19	4.15	1.63
	114.60	32.13	67.70	-0.00	0.0617	10.75	473.1	403.10	0.0466	325.5	5.858	12.20	4.16	1.63
	115.60	32.15	67.68	0.00	0.0617	10.74	472.4	402.70	0.0467	325.6	5.861	12.21	4.17	1.63
