Jul 28 2015 at 16:06:53
Frequency: 1.00Hz.
CO2
Zero:  Value:0.95  Date:18 Mar 2005	 at 07:22:33	
Span:  Value:1.00  Date:18 Mar 2005	 at 07:25:09	
H2O
Zero:  Value:0.71  Date:18 Mar 2005	 at 07:52:31	
Span:  Value:0.99  Date:18 Mar 2005	 at 11:44:01	
	Relative Time	Temperature	Pressure	Aux Input	CO2 Absorptance	CO2 mmol/m3	CO2 mg/m3	CO2 umol/mol	H2O Absorptance	H2O mmol/m3	H2O g/m3	H2O mmol/mol	H2O(°C)	Cooler Voltage
	0.39	31.21	66.87	-0.00	0.0613	10.69	470.4	404.56	0.0513	367.4	6.613	13.90	5.86	1.59
	1.40	31.23	66.87	-0.00	0.0611	10.65	468.6	403.05	0.0517	377.9	6.803	14.30	6.27	1.59
	2.40	31.21	66.91	0.00	0.0608	10.59	466.0	400.52	0.0516	373.8	6.728	14.14	6.11	1.59
	3.38	31.23	66.89	-0.00	0.0608	10.56	464.8	399.62	0.0520	376.1	6.769	14.23	6.20	1.59
	4.40	31.20	66.89	-0.00	0.0610	10.65	468.4	402.72	0.0524	387.7	6.979	14.67	6.64	1.59
	5.40	31.23	66.84	0.00	0.0613	10.68	469.9	404.37	0.0542	401.0	7.218	15.18	7.13	1.60
	6.40	31.23	66.87	0.00	0.0610	10.63	467.8	402.34	0.0527	391.9	7.055	14.83	6.80	1.59
	7.41	31.23	66.87	0.00	0.0611	10.67	469.3	403.66	0.0550	412.7	7.428	15.62	7.55	1.59
	8.39	31.23	66.87	0.00	0.0611	10.64	468.3	402.78	0.0535	405.6	7.301	15.35	7.30	1.59
	9.39	31.20	66.87	0.00	0.0611	10.64	468.2	402.70	0.0537	399.1	7.184	15.10	7.06	1.59
	10.39	31.21	66.86	0.00	0.0613	10.66	469.2	403.55	0.0544	401.6	7.229	15.20	7.15	1.60
	11.39	31.21	66.89	0.00	0.0610	10.63	467.6	402.06	0.0527	385.7	6.943	14.59	6.56	1.60
	12.40	31.20	66.85	0.00	0.0613	10.70	470.7	404.92	0.0536	396.1	7.130	15.00	6.95	1.59
	13.40	31.25	66.89	-0.00	0.0615	10.72	471.8	405.69	0.0532	395.4	7.117	14.96	6.93	1.59
	14.40	31.25	66.89	-0.00	0.0616	10.75	472.9	406.67	0.0526	386.1	6.950	14.61	6.58	1.59
	15.40	31.29	66.82	-0.00	0.0617	10.76	473.6	407.71	0.0528	387.7	6.978	14.69	6.64	1.59
	16.40	31.26	66.89	-0.00	0.0617	10.78	474.3	407.86	0.0531	390.9	7.037	14.79	6.76	1.60
	17.43	31.29	66.87	-0.00	0.0615	10.72	471.6	405.67	0.0531	390.8	7.034	14.79	6.76	1.59
	18.39	31.33	66.86	0.00	0.0615	10.74	472.7	406.76	0.0532	392.6	7.066	14.86	6.83	1.59
	19.39	31.29	66.87	0.00	0.0615	10.75	473.1	406.98	0.0533	394.6	7.104	14.94	6.90	1.59
	20.41	31.29	66.84	-0.00	0.0616	10.73	472.3	406.48	0.0539	399.1	7.183	15.11	7.06	1.59
	21.47	31.23	66.89	0.00	0.0615	10.75	473.1	406.73	0.0543	402.9	7.253	15.24	7.20	1.59
	22.39	31.25	66.86	0.00	0.0614	10.73	472.0	405.99	0.0551	413.7	7.446	15.66	7.59	1.59
	23.40	31.23	66.84	-0.00	0.0615	10.73	472.1	406.23	0.0551	412.0	7.416	15.60	7.53	1.59
	24.40	31.20	66.92	0.00	0.0612	10.68	470.0	403.89	0.0546	408.9	7.360	15.46	7.41	1.59
	25.40	31.21	66.87	0.00	0.0611	10.66	469.1	403.48	0.0549	411.6	7.409	15.58	7.51	1.59
	26.38	31.20	66.85	0.00	0.0611	10.63	467.8	402.49	0.0547	406.8	7.323	15.40	7.34	1.59
	27.41	31.24	66.87	-0.00	0.0612	10.67	469.7	404.01	0.0551	413.6	7.444	15.65	7.58	1.59
	28.39	31.25	66.89	-0.00	0.0613	10.69	470.3	404.40	0.0555	417.0	7.505	15.78	7.70	1.59
	29.41	31.25	66.87	-0.00	0.0614	10.71	471.1	405.21	0.0555	417.2	7.510	15.79	7.71	1.59
	30.42	31.28	66.87	-0.00	0.0613	10.68	470.1	404.41	0.0551	412.7	7.429	15.62	7.55	1.59
	31.40	31.19	66.87	-0.00	0.0613	10.67	469.3	403.64	0.0548	409.8	7.376	15.51	7.44	1.59
	32.40	31.23	66.89	-0.00	0.0612	10.66	469.1	403.33	0.0546	404.6	7.284	15.31	7.26	1.59
	33.40	31.23	66.87	0.00	0.0614	10.67	469.6	403.92	0.0546	404.9	7.288	15.32	7.27	1.59
	34.40	31.19	66.87	0.00	0.0613	10.71	471.3	405.30	0.0544	408.8	7.358	15.47	7.41	1.59
	35.40	31.19	66.87	0.00	0.0610	10.64	468.0	402.46	0.0536	397.7	7.158	15.05	7.01	1.59
	36.41	31.19	66.87	-0.00	0.0612	10.67	469.6	403.86	0.0544	404.6	7.283	15.31	7.26	1.59
	37.41	31.20	66.84	-0.00	0.0613	10.69	470.2	404.55	0.0547	407.6	7.336	15.43	7.37	1.59
	38.39	31.15	66.89	0.00	0.0612	10.69	470.2	404.13	0.0547	408.7	7.356	15.46	7.40	1.59
	39.39	31.15	66.87	0.00	0.0612	10.64	468.4	402.74	0.0548	405.5	7.300	15.34	7.29	1.59
	40.39	31.12	66.89	0.00	0.0614	10.71	471.3	405.05	0.0555	416.9	7.505	15.77	7.69	1.59
	41.42	31.15	66.89	-0.00	0.0613	10.69	470.5	404.47	0.0559	419.1	7.544	15.85	7.77	1.59
	42.40	31.15	66.87	-0.00	0.0615	10.72	471.8	405.65	0.0564	427.3	7.691	16.16	8.06	1.59
	43.40	31.14	66.89	0.00	0.0614	10.71	471.3	405.08	0.0559	422.1	7.597	15.96	7.88	1.59
	44.40	31.14	66.87	0.00	0.0613	10.71	471.0	404.99	0.0557	419.6	7.553	15.87	7.79	1.59
	45.40	31.12	66.84	-0.00	0.0613	10.70	470.6	404.78	0.0559	420.8	7.574	15.92	7.83	1.60
	46.40	31.09	66.89	0.00	0.0613	10.69	470.2	404.11	0.0559	420.6	7.572	15.91	7.82	1.59
	47.39	31.13	66.89	0.00	0.0612	10.67	469.3	403.37	0.0557	418.4	7.531	15.82	7.75	1.59
	48.39	31.19	66.89	0.00	0.0613	10.68	469.8	403.84	0.0562	421.2	7.582	15.93	7.85	1.59
	49.39	31.21	66.89	0.00	0.0612	10.69	470.2	404.27	0.0566	426.9	7.684	16.15	8.05	1.59
	50.40	31.27	66.87	0.00	0.0611	10.64	468.3	402.84	0.0558	420.9	7.575	15.93	7.84	1.59
	51.39	31.26	66.87	0.00	0.0613	10.66	469.2	403.58	0.0568	426.3	7.673	16.13	8.03	1.59
	52.40	31.25	66.87	0.00	0.0612	10.69	470.3	404.54	0.0570	432.3	7.782	16.36	8.23	1.59
	53.40	31.22	66.87	-0.00	0.0613	10.68	469.9	404.14	0.0570	432.5	7.786	16.37	8.24	1.59
	54.40	31.23	66.87	0.00	0.0611	10.64	468.4	402.83	0.0566	425.2	7.654	16.09	7.99	1.59
	55.40	31.20	66.84	0.00	0.0612	10.68	470.0	404.38	0.0572	434.3	7.817	16.44	8.30	1.59
	56.40	31.20	66.92	-0.00	0.0612	10.68	469.8	403.71	0.0565	428.5	7.713	16.20	8.10	1.59
	57.39	31.21	66.87	-0.00	0.0612	10.68	470.1	404.29	0.0568	431.2	7.762	16.32	8.19	1.60
	58.42	31.23	66.87	-0.00	0.0611	10.64	468.2	402.74	0.0558	420.9	7.576	15.93	7.84	1.59
	59.41	31.19	66.87	-0.00	0.0612	10.65	468.7	403.09	0.0569	426.8	7.682	16.15	8.04	1.59
	60.40	31.21	66.87	-0.00	0.0613	10.68	470.1	404.32	0.0572	434.5	7.820	16.44	8.31	1.59
	61.39	31.21	66.87	0.00	0.0612	10.68	469.8	404.06	0.0574	436.2	7.852	16.51	8.36	1.59
	62.40	31.19	66.85	0.00	0.0612	10.69	470.2	404.55	0.0575	439.4	7.909	16.63	8.47	1.59
	63.40	31.21	66.87	0.00	0.0613	10.69	470.4	404.56	0.0581	445.7	8.022	16.86	8.68	1.60
	64.38	31.17	66.87	0.00	0.0613	10.68	469.7	403.92	0.0583	444.9	8.008	16.83	8.65	1.59
	65.41	31.20	66.89	0.00	0.0612	10.68	469.7	403.86	0.0580	443.2	7.977	16.76	8.60	1.59
	66.39	31.15	66.89	-0.00	0.0610	10.66	468.9	403.07	0.0573	438.8	7.899	16.60	8.45	1.59
	67.38	31.15	66.90	0.00	0.0612	10.67	469.5	403.58	0.0581	445.6	8.020	16.85	8.67	1.59
	68.41	31.15	66.89	-0.00	0.0612	10.68	469.8	403.83	0.0589	451.9	8.135	17.09	8.88	1.60
	69.47	31.13	66.89	-0.00	0.0612	10.68	469.8	403.83	0.0585	451.7	8.130	17.08	8.87	1.60
	70.47	31.13	66.87	0.00	0.0611	10.64	468.3	402.68	0.0578	441.3	7.943	16.69	8.53	1.59
	71.39	31.14	66.87	0.00	0.0611	10.67	469.5	403.71	0.0580	444.0	7.992	16.80	8.62	1.59
	72.39	31.15	66.92	0.00	0.0612	10.68	469.8	403.65	0.0584	447.3	8.051	16.91	8.73	1.59
	73.38	31.12	66.87	0.00	0.0612	10.68	469.7	403.85	0.0582	445.7	8.023	16.86	8.68	1.59
	74.40	31.13	66.87	0.00	0.0612	10.66	469.2	403.39	0.0578	439.6	7.912	16.63	8.47	1.60
	75.39	31.20	66.87	0.00	0.0613	10.68	470.0	404.19	0.0578	441.9	7.953	16.72	8.55	1.60
	76.39	31.15	66.87	0.00	0.0612	10.66	468.9	403.20	0.0577	438.6	7.894	16.59	8.44	1.59
	77.39	31.14	66.87	0.00	0.0613	10.68	469.9	404.04	0.0577	440.9	7.937	16.68	8.52	1.59
	78.39	31.18	66.86	0.00	0.0612	10.67	469.3	403.61	0.0577	440.0	7.921	16.65	8.49	1.59
	79.39	31.14	66.87	0.00	0.0612	10.67	469.6	403.79	0.0578	440.8	7.934	16.68	8.51	1.59
	80.40	31.13	66.84	0.00	0.0612	10.67	469.6	403.93	0.0577	442.0	7.956	16.73	8.55	1.59
	81.40	31.15	66.89	-0.00	0.0611	10.67	469.7	403.73	0.0580	444.1	7.994	16.80	8.63	1.59
	82.40	31.13	66.84	-0.00	0.0612	10.66	469.0	403.40	0.0583	445.3	8.015	16.85	8.66	1.59
	83.48	31.13	66.84	-0.00	0.0611	10.64	468.3	402.79	0.0581	443.8	7.988	16.80	8.61	1.59
	84.40	31.13	66.87	-0.00	0.0612	10.65	468.7	403.02	0.0581	443.0	7.974	16.76	8.59	1.59
	85.38	31.13	66.89	0.00	0.0611	10.65	468.8	402.93	0.0582	445.2	8.013	16.84	8.66	1.59
	86.41	31.16	66.87	-0.00	0.0611	10.66	468.9	403.26	0.0581	444.8	8.006	16.83	8.65	1.59
	87.41	31.15	66.87	0.00	0.0612	10.65	468.8	403.06	0.0579	442.7	7.969	16.75	8.58	1.59
	88.39	31.15	66.84	0.00	0.0610	10.62	467.4	402.05	0.0572	437.5	7.874	16.56	8.40	1.59
	89.40	31.17	66.87	0.00	0.0611	10.65	468.5	402.87	0.0575	438.6	7.895	16.59	8.44	1.59
	90.40	31.14	66.87	-0.00	0.0612	10.66	469.0	403.25	0.0576	439.9	7.919	16.64	8.49	1.59
	91.40	31.12	66.84	-0.00	0.0612	10.66	468.8	403.27	0.0582	441.6	7.949	16.71	8.54	1.59
	92.40	31.17	66.89	-0.00	0.0613	10.68	469.8	403.85	0.0585	446.7	8.041	16.90	8.71	1.59
	93.48	31.15	66.90	0.00	0.0612	10.68	469.7	403.74	0.0583	447.5	8.055	16.92	8.74	1.59
	94.40	31.17	66.89	0.00	0.0611	10.66	469.1	403.24	0.0581	444.7	8.005	16.82	8.65	1.59
	95.39	31.15	66.87	-0.00	0.0611	10.64	468.0	402.45	0.0577	439.6	7.913	16.63	8.47	1.59
	96.39	31.13	66.84	0.00	0.0611	10.62	467.2	401.86	0.0575	437.3	7.872	16.55	8.40	1.59
	97.39	31.15	66.92	0.00	0.0611	10.66	468.9	402.91	0.0580	439.4	7.910	16.61	8.47	1.60
	98.39	31.15	66.89	-0.00	0.0612	10.67	469.4	403.52	0.0583	446.5	8.037	16.89	8.71	1.59
	99.39	31.17	66.89	0.00	0.0611	10.65	468.8	403.02	0.0579	442.1	7.958	16.72	8.56	1.59
	100.39	31.13	66.89	0.00	0.0611	10.65	468.6	402.76	0.0581	444.5	8.001	16.81	8.64	1.59
	101.46	31.14	66.87	0.00	0.0611	10.65	468.7	403.02	0.0580	444.2	7.995	16.80	8.63	1.59
	102.38	31.19	66.89	0.00	0.0611	10.64	468.3	402.64	0.0580	442.0	7.956	16.72	8.56	1.59
	103.41	31.19	66.87	-0.00	0.0611	10.65	468.6	402.96	0.0581	444.9	8.008	16.83	8.65	1.60
	104.47	31.17	66.89	-0.00	0.0612	10.65	468.7	402.96	0.0578	441.6	7.949	16.70	8.54	1.60
	105.38	31.15	66.89	0.00	0.0611	10.65	468.5	402.74	0.0579	444.4	8.000	16.81	8.64	1.59
	106.41	31.17	66.89	-0.00	0.0610	10.64	467.9	402.27	0.0589	453.2	8.158	17.14	8.93	1.59
	107.47	31.17	66.89	0.00	0.0611	10.64	468.2	402.50	0.0597	461.9	8.315	17.47	9.21	1.59
	108.45	31.13	66.87	0.00	0.0611	10.64	468.3	402.65	0.0605	471.6	8.489	17.84	9.52	1.60
	109.40	31.17	66.87	-0.00	0.0610	10.63	467.8	402.26	0.0594	460.4	8.288	17.42	9.16	1.60
	110.39	31.17	66.89	0.00	0.0610	10.61	466.8	401.30	0.0599	465.0	8.370	17.59	9.31	1.59
	111.39	31.15	66.87	0.00	0.0610	10.62	467.3	401.83	0.0607	466.2	8.392	17.64	9.35	1.59
	112.38	31.17	66.89	0.00	0.0611	10.65	468.6	402.79	0.0605	471.8	8.492	17.84	9.52	1.59
	113.41	31.15	66.87	-0.00	0.0611	10.64	468.1	402.53	0.0606	472.2	8.499	17.86	9.53	1.59
	114.40	31.19	66.92	0.00	0.0611	10.64	468.4	402.51	0.0604	471.0	8.478	17.81	9.50	1.60
	115.47	31.17	66.87	0.00	0.0612	10.68	469.8	404.00	0.0609	478.2	8.607	18.09	9.72	1.60
	116.41	31.19	66.87	-0.00	0.0610	10.65	468.5	402.93	0.0600	466.1	8.390	17.64	9.34	1.59
	117.39	31.16	66.89	0.00	0.0612	10.63	467.6	401.93	0.0605	463.0	8.334	17.51	9.24	1.59
	118.39	31.16	66.87	0.00	0.0611	10.66	468.9	403.22	0.0601	472.5	8.505	17.88	9.55	1.59
	119.40	31.17	66.87	-0.00	0.0611	10.66	468.9	403.23	0.0598	466.9	8.404	17.67	9.37	1.59
	120.39	31.14	66.87	0.00	0.0611	10.64	468.1	402.51	0.0597	461.0	8.298	17.44	9.18	1.60
