Jul 28 2015 at 11:37:42
Frequency: 1.00Hz.
CO2
Zero:  Value:0.95  Date:18 Mar 2005	 at 07:22:33	
Span:  Value:1.00  Date:18 Mar 2005	 at 07:25:09	
H2O
Zero:  Value:0.71  Date:18 Mar 2005	 at 07:52:31	
Span:  Value:0.99  Date:18 Mar 2005	 at 11:44:01	
	Relative Time	Temperature	Pressure	Aux Input	CO2 Absorptance	CO2 mmol/m3	CO2 mg/m3	CO2 umol/mol	H2O Absorptance	H2O mmol/m3	H2O g/m3	H2O mmol/mol	H2O(°C)	Cooler Voltage
	0.69	28.62	67.65	0.00	0.0629	10.99	483.4	407.48	0.0373	244.8	4.406	9.08	0.01	1.60
	1.70	28.59	67.65	-0.00	0.0630	11.00	483.8	407.76	0.0379	245.6	4.421	9.11	0.06	1.60
	2.68	28.59	67.67	0.00	0.0627	10.96	482.3	406.37	0.0375	245.7	4.423	9.11	0.06	1.60
	3.70	28.60	67.65	-0.00	0.0627	10.98	483.2	407.25	0.0380	247.7	4.459	9.19	0.18	1.60
	4.70	28.57	67.67	-0.00	0.0626	10.96	482.1	406.11	0.0384	251.0	4.519	9.31	0.36	1.60
	5.69	28.59	67.65	-0.00	0.0627	10.96	482.2	406.40	0.0385	252.7	4.549	9.37	0.45	1.60
	6.69	28.55	67.65	-0.00	0.0626	10.97	482.9	406.89	0.0385	254.3	4.577	9.43	0.53	1.60
	7.69	28.55	67.67	0.00	0.0626	10.94	481.4	405.52	0.0384	250.0	4.500	9.27	0.30	1.60
	8.67	28.54	67.65	0.00	0.0626	10.94	481.3	405.54	0.0387	254.5	4.580	9.43	0.54	1.60
	9.67	28.55	67.65	0.00	0.0624	10.93	481.1	405.38	0.0388	256.2	4.612	9.50	0.64	1.60
	10.69	28.51	67.65	0.00	0.0623	10.90	479.8	404.26	0.0381	250.0	4.500	9.27	0.30	1.60
	11.76	28.53	67.65	0.00	0.0624	10.93	481.0	405.31	0.0384	251.7	4.531	9.33	0.39	1.60
	12.67	28.49	67.65	0.00	0.0624	10.92	480.3	404.62	0.0383	248.9	4.480	9.23	0.23	1.60
	13.68	28.49	67.63	-0.00	0.0623	10.88	478.6	403.38	0.0378	248.1	4.466	9.20	0.19	1.60
	14.68	28.47	67.65	-0.00	0.0624	10.91	479.9	404.32	0.0385	253.3	4.559	9.39	0.47	1.60
	15.69	28.45	67.65	-0.00	0.0623	10.88	478.7	403.23	0.0383	250.8	4.514	9.30	0.34	1.60
	16.69	28.47	67.65	-0.00	0.0623	10.88	478.6	403.14	0.0385	252.7	4.548	9.37	0.44	1.60
	17.68	28.47	67.68	0.00	0.0623	10.88	478.8	403.22	0.0380	250.1	4.502	9.27	0.30	1.60
	18.77	28.47	67.65	-0.00	0.0625	10.91	480.2	404.59	0.0387	255.5	4.600	9.47	0.60	1.60
	19.67	28.48	67.67	0.00	0.0623	10.89	479.2	403.59	0.0382	251.2	4.521	9.31	0.36	1.60
	20.70	28.50	67.65	-0.00	0.0624	10.91	480.3	404.63	0.0394	261.1	4.701	9.68	0.90	1.60
	21.68	28.47	67.67	-0.00	0.0623	10.90	479.5	403.79	0.0392	258.4	4.651	9.57	0.75	1.60
	22.68	28.47	67.67	0.00	0.0624	10.93	480.9	404.98	0.0403	267.2	4.810	9.90	1.22	1.60
	23.68	28.47	67.65	0.00	0.0625	10.96	482.2	406.25	0.0407	272.8	4.911	10.11	1.51	1.60
	24.66	28.49	67.65	0.00	0.0627	10.96	482.1	406.17	0.0411	274.4	4.939	10.17	1.59	1.60
	25.68	28.49	67.65	0.00	0.0626	10.96	482.0	406.09	0.0410	274.9	4.949	10.19	1.62	1.60
	26.66	28.49	67.68	0.00	0.0626	10.94	481.4	405.46	0.0408	273.3	4.920	10.13	1.53	1.60
	27.69	28.49	67.65	0.00	0.0626	10.96	482.2	406.21	0.0410	275.7	4.963	10.22	1.65	1.60
	28.67	28.51	67.65	0.00	0.0626	10.94	481.3	405.49	0.0411	274.3	4.938	10.17	1.59	1.60
	29.67	28.53	67.65	0.00	0.0627	10.97	482.6	406.66	0.0417	279.6	5.033	10.37	1.85	1.60
	30.68	28.55	67.65	-0.00	0.0626	10.93	481.1	405.38	0.0415	278.1	5.005	10.31	1.78	1.60
	31.68	28.55	67.65	-0.00	0.0628	10.97	482.5	406.58	0.0426	283.2	5.098	10.50	2.03	1.60
	32.68	28.59	67.65	0.00	0.0629	10.98	483.3	407.33	0.0429	290.3	5.225	10.77	2.38	1.60
	33.66	28.57	67.65	0.00	0.0627	10.98	483.0	407.06	0.0429	291.1	5.240	10.79	2.42	1.60
	34.68	28.54	67.65	0.00	0.0627	10.96	482.2	406.35	0.0432	293.9	5.290	10.90	2.55	1.60
	35.66	28.53	67.62	0.00	0.0629	11.02	485.0	408.80	0.0452	309.7	5.574	11.49	3.29	1.60
	36.69	28.51	67.68	-0.00	0.0627	11.00	484.1	407.75	0.0448	309.8	5.577	11.48	3.30	1.60
	37.67	28.51	67.65	0.00	0.0627	10.98	483.0	406.96	0.0445	304.0	5.472	11.27	3.03	1.60
	38.69	28.51	67.65	0.00	0.0627	10.99	483.5	407.36	0.0445	309.9	5.578	11.49	3.30	1.60
	39.69	28.53	67.65	0.00	0.0629	10.97	482.9	406.87	0.0452	307.2	5.529	11.39	3.17	1.60
	40.70	28.53	67.65	-0.00	0.0629	10.99	483.7	407.62	0.0454	318.6	5.735	11.81	3.69	1.60
	41.70	28.53	67.65	-0.00	0.0629	10.98	483.2	407.15	0.0459	314.7	5.665	11.67	3.52	1.60
	42.70	28.53	67.68	-0.00	0.0630	11.01	484.4	408.05	0.0465	323.6	5.825	11.99	3.91	1.60
	43.70	28.55	67.65	-0.00	0.0627	10.97	482.8	406.85	0.0460	321.5	5.788	11.92	3.82	1.60
	44.66	28.53	67.67	0.00	0.0626	10.93	481.1	405.22	0.0454	312.2	5.620	11.57	3.41	1.60
	45.69	28.55	67.67	-0.00	0.0627	10.94	481.4	405.52	0.0460	319.2	5.746	11.83	3.72	1.60
	46.67	28.53	67.65	-0.00	0.0626	10.96	482.4	406.49	0.0459	322.2	5.800	11.95	3.85	1.60
	47.67	28.53	67.62	0.00	0.0626	10.96	482.4	406.63	0.0459	319.9	5.757	11.86	3.75	1.60
	48.67	28.52	67.67	0.00	0.0625	10.96	482.4	406.33	0.0459	320.3	5.765	11.87	3.77	1.60
	49.67	28.53	67.65	0.00	0.0626	10.97	482.5	406.61	0.0461	321.7	5.790	11.93	3.83	1.60
	50.67	28.55	67.62	0.00	0.0625	10.93	481.1	405.61	0.0455	315.5	5.679	11.70	3.55	1.60
	51.68	28.57	67.65	0.00	0.0625	10.94	481.5	405.77	0.0457	317.6	5.717	11.78	3.65	1.60
	52.68	28.53	67.65	0.00	0.0625	10.95	481.8	405.92	0.0453	318.1	5.726	11.79	3.67	1.60
	53.70	28.52	67.65	0.00	0.0624	10.92	480.7	405.00	0.0452	310.5	5.588	11.51	3.32	1.60
	54.69	28.53	67.65	-0.00	0.0624	10.93	480.8	405.10	0.0451	311.6	5.610	11.55	3.38	1.60
	55.69	28.51	67.67	-0.00	0.0624	10.92	480.6	404.80	0.0454	314.0	5.652	11.64	3.49	1.60
	56.69	28.51	67.68	-0.00	0.0624	10.93	480.8	404.98	0.0454	314.8	5.666	11.67	3.52	1.60
	57.69	28.51	67.68	0.00	0.0625	10.93	480.7	404.89	0.0455	315.6	5.681	11.70	3.56	1.60
	58.69	28.52	67.67	0.00	0.0623	10.91	480.0	404.28	0.0453	314.3	5.657	11.65	3.50	1.60
	59.70	28.53	67.65	-0.00	0.0625	10.93	481.0	405.27	0.0474	331.7	5.971	12.30	4.27	1.60
	60.68	28.51	67.68	-0.00	0.0626	10.96	482.2	406.09	0.0481	342.2	6.160	12.68	4.71	1.60
	61.68	28.50	67.65	0.00	0.0627	10.93	480.9	405.21	0.0472	334.2	6.016	12.39	4.37	1.60
	62.74	28.53	67.65	0.00	0.0626	10.92	480.7	405.02	0.0472	329.0	5.923	12.20	4.15	1.60
	63.66	28.53	67.68	0.00	0.0627	10.92	480.4	404.65	0.0473	329.7	5.934	12.22	4.18	1.60
	64.68	28.53	67.67	0.00	0.0626	10.92	480.6	404.83	0.0472	330.7	5.952	12.26	4.22	1.60
	65.68	28.55	67.65	0.00	0.0627	10.95	481.6	405.88	0.0485	342.4	6.164	12.70	4.72	1.60
	66.69	28.53	67.67	0.00	0.0627	10.96	482.4	406.32	0.0487	347.7	6.258	12.89	4.94	1.60
	67.67	28.57	67.65	0.00	0.0628	10.97	482.6	406.71	0.0502	357.2	6.430	13.25	5.33	1.60
	68.67	28.55	67.65	0.00	0.0627	10.97	482.8	406.83	0.0504	367.9	6.622	13.64	5.75	1.60
	69.69	28.53	67.65	-0.00	0.0627	10.96	482.1	406.18	0.0506	365.8	6.585	13.56	5.67	1.60
	70.67	28.55	67.63	-0.00	0.0627	10.96	482.2	406.47	0.0510	369.7	6.655	13.71	5.82	1.60
	71.68	28.57	67.65	0.00	0.0628	10.97	482.8	406.89	0.0518	376.3	6.773	13.95	6.08	1.60
	72.67	28.55	67.65	0.00	0.0627	10.97	482.6	406.66	0.0506	366.1	6.590	13.58	5.68	1.60
	73.68	28.58	67.63	0.00	0.0627	10.96	482.3	406.59	0.0507	364.9	6.569	13.54	5.64	1.60
	74.66	28.54	67.65	0.00	0.0624	10.94	481.4	405.68	0.0499	358.6	6.454	13.29	5.38	1.60
	75.69	28.57	67.65	0.00	0.0625	10.91	480.2	404.71	0.0498	357.1	6.429	13.24	5.33	1.60
	76.67	28.57	67.65	0.00	0.0625	10.93	480.7	405.14	0.0503	356.8	6.422	13.23	5.31	1.60
	77.70	28.55	67.65	-0.00	0.0626	10.93	481.0	405.37	0.0516	367.4	6.613	13.62	5.73	1.60
	78.69	28.55	67.60	0.00	0.0624	10.92	480.5	405.24	0.0504	364.8	6.566	13.54	5.63	1.60
	79.69	28.55	67.65	-0.00	0.0624	10.91	479.9	404.36	0.0497	358.5	6.452	13.29	5.38	1.60
	80.68	28.59	67.65	0.00	0.0625	10.91	480.1	404.63	0.0514	364.5	6.561	13.52	5.62	1.60
	81.67	28.59	67.65	0.00	0.0624	10.92	480.5	404.92	0.0520	378.5	6.813	14.04	6.16	1.60
	82.70	28.59	67.70	-0.00	0.0625	10.93	480.8	404.89	0.0523	380.6	6.851	14.10	6.25	1.60
	83.68	28.63	67.66	-0.00	0.0624	10.91	480.2	404.70	0.0514	374.8	6.746	13.90	6.02	1.60
	84.68	28.60	67.65	0.00	0.0624	10.90	479.7	404.33	0.0517	372.4	6.703	13.81	5.93	1.60
	85.74	28.60	67.65	0.00	0.0624	10.91	479.8	404.42	0.0523	378.6	6.816	14.04	6.17	1.60
	86.69	28.59	67.65	0.00	0.0624	10.89	478.9	403.63	0.0522	379.7	6.835	14.08	6.21	1.60
	87.67	28.60	67.65	0.00	0.0623	10.88	478.8	403.50	0.0514	374.0	6.732	13.87	5.99	1.61
	88.67	28.58	67.65	0.00	0.0625	10.90	479.5	404.13	0.0521	379.1	6.824	14.06	6.19	1.60
	89.69	28.60	67.65	0.00	0.0625	10.91	480.2	404.69	0.0535	393.2	7.077	14.58	6.72	1.60
	90.67	28.62	67.65	0.00	0.0622	10.88	478.7	403.46	0.0526	386.1	6.949	14.32	6.45	1.60
	91.70	28.62	67.65	-0.00	0.0622	10.87	478.4	403.26	0.0532	391.3	7.044	14.51	6.65	1.60
	92.68	28.61	67.65	-0.00	0.0622	10.88	478.9	403.66	0.0536	393.4	7.081	14.59	6.73	1.60
	93.69	28.62	67.67	-0.00	0.0622	10.87	478.1	402.88	0.0534	394.7	7.105	14.63	6.78	1.61
	94.68	28.62	67.65	-0.00	0.0622	10.84	477.1	402.19	0.0534	392.8	7.070	14.57	6.70	1.60
	95.69	28.65	67.65	-0.00	0.0621	10.84	477.1	402.20	0.0524	384.5	6.920	14.26	6.39	1.60
	96.77	28.60	67.65	-0.00	0.0620	10.82	476.0	401.21	0.0537	398.3	7.170	14.77	6.91	1.60
	97.67	28.62	67.70	0.00	0.0621	10.81	475.8	400.78	0.0533	389.8	7.017	14.45	6.59	1.60
	98.67	28.59	67.65	0.00	0.0623	10.87	478.1	402.96	0.0527	386.1	6.950	14.32	6.45	1.60
	99.75	28.60	67.65	0.00	0.0622	10.87	478.3	403.14	0.0520	380.5	6.850	14.11	6.24	1.61
	100.67	28.63	67.65	0.00	0.0621	10.84	477.1	402.15	0.0523	381.2	6.861	14.14	6.27	1.60
	101.68	28.60	67.65	0.00	0.0621	10.80	475.1	400.43	0.0525	381.6	6.869	14.15	6.28	1.60
	102.66	28.63	67.65	0.00	0.0622	10.83	476.7	401.79	0.0528	386.0	6.948	14.32	6.45	1.60
	103.69	28.62	67.63	-0.00	0.0620	10.85	477.2	402.34	0.0529	388.9	7.000	14.43	6.56	1.60
	104.68	28.60	67.65	0.00	0.0621	10.87	478.2	403.01	0.0530	389.6	7.013	14.45	6.58	1.61
	105.69	28.60	67.67	0.00	0.0622	10.86	478.0	402.75	0.0538	396.2	7.132	14.69	6.83	1.61
	106.69	28.62	67.65	-0.00	0.0622	10.84	477.0	402.04	0.0533	392.1	7.057	14.54	6.68	1.60
	107.69	28.62	67.66	-0.00	0.0622	10.83	476.5	401.64	0.0530	388.4	6.991	14.40	6.54	1.60
	108.69	28.64	67.65	-0.00	0.0620	10.82	475.9	401.16	0.0537	394.8	7.106	14.64	6.78	1.60
	109.67	28.64	67.67	-0.00	0.0619	10.80	475.4	400.60	0.0537	393.1	7.076	14.57	6.72	1.61
	110.68	28.64	67.65	-0.00	0.0623	10.85	477.5	402.47	0.0551	408.0	7.343	15.13	7.26	1.61
	111.68	28.64	67.70	0.00	0.0621	10.83	476.5	401.34	0.0544	404.2	7.275	14.98	7.12	1.61
	112.68	28.62	67.65	0.00	0.0620	10.84	477.0	402.03	0.0546	404.8	7.287	15.01	7.14	1.60
	113.68	28.64	67.65	0.00	0.0621	10.86	477.8	402.72	0.0548	408.2	7.347	15.14	7.27	1.61
	114.68	28.64	67.65	0.00	0.0623	10.84	477.1	402.20	0.0549	406.1	7.309	15.06	7.19	1.61
	115.67	28.64	67.67	0.00	0.0624	10.90	479.4	404.00	0.0557	415.7	7.483	15.41	7.53	1.61
	116.69	28.62	67.65	-0.00	0.0624	10.91	479.9	404.49	0.0557	417.8	7.520	15.50	7.60	1.61
	117.69	28.67	67.65	-0.00	0.0622	10.87	478.3	403.18	0.0550	407.7	7.339	15.12	7.25	1.61
	118.67	28.64	67.65	0.00	0.0623	10.87	478.5	403.30	0.0549	408.4	7.351	15.15	7.27	1.61
	119.76	28.65	67.65	-0.00	0.0623	10.87	478.4	403.30	0.0546	408.6	7.355	15.16	7.28	1.61
	120.68	28.61	67.68	-0.00	0.0621	10.86	477.8	402.55	0.0546	405.6	7.301	15.04	7.17	1.61
