Jul 28 2015 at 14:09:47
Frequency: 1.00Hz.
CO2
Zero:  Value:0.95  Date:18 Mar 2005	 at 07:22:33	
Span:  Value:1.00  Date:18 Mar 2005	 at 07:25:09	
H2O
Zero:  Value:0.71  Date:18 Mar 2005	 at 07:52:31	
Span:  Value:0.99  Date:18 Mar 2005	 at 11:44:01	
	Relative Time	Temperature	Pressure	Aux Input	CO2 Absorptance	CO2 mmol/m3	CO2 mg/m3	CO2 umol/mol	H2O Absorptance	H2O mmol/m3	H2O g/m3	H2O mmol/mol	H2O(°C)	Cooler Voltage
	0.08	32.17	67.72	-0.00	0.0635	11.19	492.3	419.37	0.0509	370.1	6.662	13.87	6.01	1.60
	1.06	32.20	67.73	0.00	0.0635	11.12	489.1	416.62	0.0537	400.2	7.204	15.00	7.15	1.60
	2.08	32.15	67.70	-0.00	0.0633	11.12	489.4	417.01	0.0547	405.9	7.306	15.22	7.35	1.60
	3.07	32.13	67.70	-0.00	0.0636	11.20	492.7	419.80	0.0545	400.9	7.216	15.03	7.17	1.60
	4.06	32.17	67.70	0.00	0.0634	11.10	488.3	416.13	0.0553	413.9	7.449	15.52	7.64	1.60
	5.07	32.20	67.70	-0.00	0.0634	11.12	489.2	416.91	0.0550	409.7	7.375	15.36	7.49	1.60
	6.07	32.17	67.73	-0.00	0.0635	11.12	489.4	416.88	0.0535	395.5	7.119	14.82	6.97	1.60
	7.07	32.17	67.72	0.00	0.0638	11.23	494.2	421.02	0.0525	381.7	6.870	14.31	6.46	1.60
	8.05	32.15	67.72	0.00	0.0639	11.23	494.3	421.07	0.0521	379.7	6.835	14.23	6.38	1.60
	9.06	32.13	67.70	0.00	0.0636	11.18	491.9	419.10	0.0523	381.5	6.867	14.30	6.45	1.60
	10.05	32.13	67.72	0.00	0.0633	11.12	489.4	416.89	0.0518	377.0	6.787	14.13	6.28	1.60
	11.06	32.15	67.72	0.00	0.0626	11.00	483.8	412.14	0.0519	377.2	6.790	14.14	6.29	1.60
	12.06	32.15	67.70	-0.00	0.0631	11.05	486.4	414.42	0.0518	377.3	6.791	14.15	6.29	1.60
	13.07	32.20	67.70	-0.00	0.0629	11.00	483.8	412.32	0.0518	376.9	6.785	14.13	6.28	1.60
	14.07	32.17	67.70	-0.00	0.0627	11.00	483.9	412.35	0.0515	374.0	6.732	14.02	6.16	1.60
	15.07	32.16	67.73	-0.00	0.0627	10.97	482.6	411.03	0.0518	378.2	6.808	14.18	6.32	1.60
	16.07	32.17	67.70	-0.00	0.0627	10.96	482.3	410.98	0.0510	367.0	6.605	13.76	5.89	1.60
	17.05	32.15	67.70	0.00	0.0627	10.97	482.7	411.27	0.0512	370.9	6.676	13.91	6.04	1.60
	18.14	32.15	67.72	-0.00	0.0626	10.95	481.8	410.37	0.0512	371.8	6.693	13.94	6.08	1.60
	19.05	32.16	67.75	0.00	0.0624	10.93	480.9	409.49	0.0518	372.9	6.711	13.97	6.12	1.60
	20.06	32.13	67.75	0.00	0.0625	10.94	481.2	409.68	0.0526	379.8	6.837	14.23	6.38	1.60
	21.04	32.17	67.73	0.00	0.0625	10.91	480.1	408.97	0.0527	383.6	6.905	14.38	6.53	1.60
	22.09	32.15	67.75	0.00	0.0624	10.91	479.9	408.64	0.0525	383.9	6.909	14.38	6.54	1.60
	23.06	32.20	67.73	0.00	0.0625	10.92	480.6	409.42	0.0524	383.8	6.908	14.39	6.54	1.60
	24.07	32.20	67.70	0.00	0.0624	10.90	479.6	408.76	0.0527	385.2	6.934	14.44	6.59	1.60
	25.07	32.16	67.73	0.00	0.0625	10.91	480.0	408.89	0.0526	384.3	6.918	14.40	6.56	1.60
	26.07	32.17	67.73	0.00	0.0625	10.91	480.2	409.07	0.0528	385.7	6.942	14.45	6.61	1.60
	27.05	32.15	67.72	0.00	0.0624	10.91	479.9	408.74	0.0529	386.9	6.964	14.50	6.65	1.60
	28.08	32.14	67.73	-0.00	0.0623	10.89	479.1	408.03	0.0528	387.0	6.965	14.50	6.65	1.60
	29.06	32.11	67.68	-0.00	0.0622	10.86	477.9	407.29	0.0528	386.1	6.949	14.48	6.62	1.60
	30.05	32.14	67.70	0.00	0.0622	10.83	476.7	406.17	0.0527	386.3	6.954	14.48	6.63	1.60
	31.06	32.07	67.77	-0.00	0.0620	10.81	475.7	404.82	0.0526	384.8	6.927	14.41	6.57	1.60
	32.06	32.05	67.70	-0.00	0.0619	10.78	474.5	404.14	0.0525	383.1	6.896	14.36	6.51	1.60
	33.06	32.05	67.70	0.00	0.0621	10.83	476.7	406.05	0.0527	384.8	6.927	14.42	6.57	1.60
	34.07	32.07	67.73	0.00	0.0622	10.85	477.4	406.52	0.0529	386.8	6.963	14.49	6.65	1.60
	35.07	32.04	67.70	0.00	0.0623	10.87	478.2	407.36	0.0531	389.3	7.007	14.59	6.74	1.60
	36.05	32.03	67.73	0.00	0.0623	10.87	478.4	407.30	0.0527	383.9	6.911	14.38	6.53	1.60
	37.07	32.05	67.77	0.00	0.0622	10.86	478.0	406.71	0.0533	390.6	7.031	14.62	6.79	1.60
	38.06	31.99	67.72	-0.00	0.0622	10.85	477.6	406.61	0.0532	389.2	7.005	14.58	6.73	1.60
	39.08	32.01	67.73	-0.00	0.0621	10.86	478.0	406.93	0.0532	388.8	6.999	14.57	6.72	1.60
	40.06	32.03	67.73	0.00	0.0621	10.84	476.8	405.94	0.0531	389.3	7.007	14.58	6.74	1.60
	41.08	32.07	67.70	-0.00	0.0620	10.80	475.0	404.65	0.0536	393.5	7.084	14.75	6.90	1.60
	42.04	32.12	67.75	0.00	0.0618	10.76	473.6	403.24	0.0537	396.4	7.136	14.85	7.01	1.60
	43.07	32.16	67.73	-0.00	0.0618	10.75	473.2	403.08	0.0525	384.5	6.921	14.41	6.56	1.60
	44.05	32.15	67.73	-0.00	0.0619	10.79	474.6	404.29	0.0534	392.1	7.058	14.70	6.85	1.60
	45.08	32.15	67.73	-0.00	0.0618	10.76	473.6	403.34	0.0539	389.7	7.014	14.60	6.76	1.60
	46.05	32.20	67.70	0.00	0.0618	10.76	473.2	403.29	0.0544	400.9	7.216	15.03	7.17	1.60
	47.06	32.17	67.72	0.00	0.0618	10.76	473.2	403.13	0.0529	390.0	7.020	14.62	6.77	1.60
	48.06	32.13	67.73	0.00	0.0618	10.75	472.9	402.77	0.0540	399.7	7.195	14.98	7.13	1.60
	49.08	32.13	67.73	0.00	0.0617	10.75	472.9	402.74	0.0551	409.4	7.369	15.34	7.48	1.60
	50.06	32.09	67.68	0.00	0.0617	10.74	472.7	402.84	0.0546	404.7	7.285	15.18	7.31	1.60
	51.06	32.07	67.73	0.00	0.0616	10.73	472.2	402.04	0.0550	410.7	7.393	15.39	7.52	1.60
	52.06	32.08	67.73	0.00	0.0616	10.72	471.7	401.71	0.0549	409.2	7.366	15.33	7.47	1.60
	53.06	32.01	67.70	0.00	0.0616	10.72	471.7	401.76	0.0547	404.8	7.286	15.17	7.30	1.60
	54.15	32.04	67.75	-0.00	0.0616	10.72	471.6	401.44	0.0541	401.1	7.220	15.02	7.17	1.60
	55.07	32.01	67.73	0.00	0.0616	10.72	471.8	401.66	0.0544	402.1	7.238	15.06	7.21	1.60
	56.07	32.01	67.73	-0.00	0.0616	10.73	472.2	402.05	0.0548	404.9	7.289	15.17	7.31	1.60
	57.06	32.03	67.75	-0.00	0.0616	10.72	471.7	401.51	0.0552	412.5	7.426	15.45	7.58	1.60
	58.06	32.05	67.72	-0.00	0.0616	10.73	472.0	401.89	0.0553	411.7	7.411	15.43	7.56	1.60
	59.06	32.11	67.73	-0.00	0.0615	10.69	470.4	400.65	0.0553	413.2	7.437	15.48	7.61	1.60
	60.05	32.20	67.75	0.00	0.0613	10.66	469.2	399.57	0.0549	408.2	7.348	15.30	7.44	1.60
	61.04	32.20	67.73	0.00	0.0614	10.67	469.3	399.83	0.0557	416.7	7.501	15.62	7.74	1.60
	62.06	32.20	67.73	0.00	0.0615	10.70	470.8	401.10	0.0556	413.9	7.451	15.52	7.64	1.60
	63.05	32.25	67.70	-0.00	0.0614	10.67	469.5	400.20	0.0564	421.5	7.587	15.81	7.91	1.60
	64.08	32.19	67.70	-0.00	0.0613	10.65	468.8	399.50	0.0565	426.9	7.685	16.01	8.09	1.60
	65.07	32.24	67.73	0.00	0.0614	10.67	469.4	399.97	0.0568	428.5	7.714	16.07	8.15	1.60
	66.07	32.20	67.73	-0.00	0.0613	10.66	469.0	399.53	0.0560	422.1	7.598	15.82	7.93	1.60
	67.06	32.17	67.73	-0.00	0.0613	10.66	469.1	399.60	0.0556	416.6	7.499	15.62	7.73	1.60
	68.05	32.17	67.72	0.00	0.0614	10.67	469.3	399.75	0.0553	411.3	7.403	15.42	7.55	1.60
	69.06	32.18	67.73	-0.00	0.0613	10.66	469.0	399.49	0.0556	418.6	7.535	15.69	7.81	1.60
	70.04	32.15	67.70	0.00	0.0613	10.66	469.0	399.66	0.0551	407.5	7.334	15.28	7.41	1.60
	71.06	32.18	67.73	0.00	0.0613	10.65	468.4	399.04	0.0554	412.4	7.424	15.46	7.59	1.60
	72.07	32.15	67.72	-0.00	0.0613	10.65	468.6	399.12	0.0560	418.8	7.538	15.70	7.81	1.60
	73.06	32.20	67.70	0.00	0.0612	10.62	467.1	398.09	0.0560	418.7	7.536	15.70	7.81	1.60
	74.13	32.21	67.75	0.00	0.0612	10.65	468.5	398.97	0.0560	419.0	7.543	15.70	7.82	1.60
	75.05	32.20	67.73	0.00	0.0613	10.65	468.4	399.05	0.0561	421.1	7.581	15.78	7.89	1.60
	76.05	32.24	67.73	0.00	0.0614	10.65	468.7	399.35	0.0557	419.0	7.543	15.71	7.82	1.60
	77.05	32.24	67.75	0.00	0.0613	10.66	468.9	399.35	0.0560	419.9	7.557	15.73	7.85	1.60
	78.06	32.24	67.70	-0.00	0.0612	10.64	468.1	399.00	0.0549	411.6	7.409	15.44	7.56	1.60
	79.06	32.21	67.73	0.00	0.0612	10.64	468.1	398.78	0.0555	413.3	7.439	15.49	7.62	1.60
	80.06	32.23	67.70	-0.00	0.0612	10.63	467.8	398.69	0.0560	419.5	7.551	15.73	7.84	1.60
	81.06	32.22	67.68	0.00	0.0612	10.63	467.9	398.91	0.0565	421.3	7.583	15.80	7.90	1.60
	82.06	32.20	67.73	-0.00	0.0612	10.63	467.8	398.49	0.0569	430.6	7.750	16.14	8.22	1.60
	83.07	32.22	67.73	-0.00	0.0612	10.63	467.9	398.64	0.0568	427.6	7.697	16.03	8.12	1.60
	84.05	32.17	67.70	0.00	0.0612	10.63	467.6	398.48	0.0567	426.3	7.674	15.98	8.07	1.60
	85.07	32.17	67.70	0.00	0.0612	10.63	467.8	398.65	0.0564	423.7	7.627	15.89	7.98	1.60
	86.06	32.20	67.68	0.00	0.0612	10.64	468.0	399.01	0.0561	421.9	7.594	15.83	7.92	1.60
	87.05	32.20	67.71	0.00	0.0612	10.62	467.5	398.37	0.0556	416.4	7.496	15.61	7.73	1.60
	88.06	32.17	67.72	0.00	0.0613	10.63	467.7	398.39	0.0556	415.8	7.484	15.59	7.71	1.60
	89.05	32.17	67.73	0.00	0.0612	10.63	467.8	398.50	0.0557	416.4	7.495	15.61	7.73	1.60
	90.06	32.20	67.70	0.00	0.0611	10.61	466.9	397.89	0.0554	412.7	7.428	15.47	7.60	1.60
	91.04	32.17	67.70	0.00	0.0612	10.62	467.2	398.12	0.0553	412.3	7.422	15.46	7.58	1.60
	92.07	32.22	67.70	-0.00	0.0612	10.63	467.7	398.62	0.0553	412.7	7.428	15.48	7.60	1.60
	93.05	32.24	67.73	0.00	0.0612	10.63	467.8	398.56	0.0553	412.3	7.421	15.46	7.58	1.60
	94.08	32.26	67.70	-0.00	0.0612	10.63	467.6	398.56	0.0551	410.2	7.383	15.38	7.51	1.60
	95.07	32.24	67.70	0.00	0.0612	10.63	467.5	398.48	0.0551	409.0	7.362	15.34	7.47	1.60
	96.06	32.28	67.75	0.00	0.0612	10.63	467.7	398.37	0.0553	411.3	7.403	15.41	7.55	1.60
	97.06	32.26	67.75	-0.00	0.0612	10.62	467.5	398.16	0.0554	414.1	7.453	15.52	7.65	1.60
	98.06	32.28	67.72	0.00	0.0611	10.62	467.2	398.13	0.0549	408.9	7.361	15.33	7.47	1.60
	99.06	32.27	67.73	0.00	0.0611	10.62	467.1	398.00	0.0552	410.1	7.382	15.38	7.51	1.60
	100.06	32.28	67.75	0.00	0.0611	10.62	467.1	397.88	0.0553	414.6	7.462	15.54	7.67	1.60
	101.06	32.26	67.73	0.00	0.0611	10.61	467.0	397.89	0.0553	412.9	7.432	15.48	7.61	1.60
	102.06	32.26	67.73	0.00	0.0612	10.62	467.1	398.02	0.0554	413.3	7.440	15.50	7.62	1.60
	103.05	32.26	67.73	-0.00	0.0611	10.62	467.3	398.16	0.0559	418.5	7.534	15.69	7.81	1.60
	104.05	32.26	67.70	0.00	0.0611	10.61	467.0	398.08	0.0559	419.4	7.549	15.73	7.84	1.60
	105.13	32.28	67.73	-0.00	0.0612	10.62	467.4	398.31	0.0561	420.6	7.571	15.77	7.88	1.60
	106.06	32.29	67.70	-0.00	0.0611	10.60	466.5	397.66	0.0561	419.3	7.548	15.73	7.84	1.60
	107.05	32.26	67.70	0.00	0.0611	10.61	466.8	397.91	0.0565	424.3	7.637	15.91	8.01	1.60
	108.06	32.24	67.70	-0.00	0.0611	10.62	467.4	398.40	0.0560	420.7	7.572	15.78	7.88	1.60
	109.06	32.21	67.72	0.00	0.0611	10.62	467.4	398.20	0.0560	420.7	7.573	15.77	7.88	1.60
	110.07	32.22	67.70	-0.00	0.0611	10.62	467.1	398.13	0.0561	420.1	7.562	15.75	7.86	1.60
	111.07	32.17	67.70	-0.00	0.0611	10.62	467.2	398.10	0.0563	422.8	7.610	15.85	7.95	1.60
	112.07	32.17	67.70	-0.00	0.0612	10.62	467.4	398.28	0.0567	425.9	7.666	15.97	8.06	1.60
	113.05	32.17	67.73	0.00	0.0612	10.62	467.2	397.98	0.0573	434.4	7.819	16.28	8.35	1.60
	114.07	32.13	67.70	-0.00	0.0612	10.62	467.3	398.12	0.0571	431.4	7.765	16.17	8.24	1.60
	115.05	32.13	67.70	0.00	0.0612	10.62	467.1	398.02	0.0576	436.7	7.861	16.37	8.43	1.60
	116.06	32.17	67.70	0.00	0.0612	10.62	467.2	398.11	0.0579	440.3	7.925	16.51	8.55	1.60
	117.05	32.13	67.73	0.00	0.0611	10.61	466.9	397.67	0.0579	439.3	7.907	16.46	8.51	1.60
	118.06	32.16	67.70	0.00	0.0611	10.60	466.6	397.58	0.0575	435.0	7.830	16.31	8.37	1.60
	119.06	32.17	67.70	-0.00	0.0611	10.60	466.6	397.58	0.0573	433.2	7.797	16.24	8.31	1.60
