Jul 28 2015 at 15:58:24
Frequency: 1.00Hz.
CO2
Zero:  Value:0.95  Date:18 Mar 2005	 at 07:22:33	
Span:  Value:1.00  Date:18 Mar 2005	 at 07:25:09	
H2O
Zero:  Value:0.71  Date:18 Mar 2005	 at 07:52:31	
Span:  Value:0.99  Date:18 Mar 2005	 at 11:44:01	
	Relative Time	Temperature	Pressure	Aux Input	CO2 Absorptance	CO2 mmol/m3	CO2 mg/m3	CO2 umol/mol	H2O Absorptance	H2O mmol/m3	H2O g/m3	H2O mmol/mol	H2O(°C)	Cooler Voltage
	0.14	31.80	66.85	0.00	0.0619	10.84	476.8	411.03	0.0424	285.3	5.136	10.82	2.29	1.61
	1.14	31.82	66.89	-0.00	0.0618	10.82	476.0	410.01	0.0427	291.9	5.255	11.06	2.61	1.60
	2.14	31.79	66.92	0.00	0.0619	10.81	475.8	409.67	0.0423	287.2	5.169	10.88	2.38	1.60
	3.17	31.84	66.89	-0.00	0.0619	10.82	475.9	409.97	0.0424	286.5	5.158	10.86	2.35	1.60
	4.15	31.81	66.87	-0.00	0.0618	10.79	474.6	409.00	0.0422	285.3	5.135	10.82	2.29	1.60
	5.13	31.82	66.87	0.00	0.0619	10.81	475.8	410.05	0.0420	283.7	5.106	10.76	2.21	1.60
	6.16	31.83	66.88	-0.00	0.0619	10.82	476.3	410.37	0.0423	286.4	5.156	10.86	2.34	1.60
	7.14	31.86	66.91	-0.00	0.0618	10.82	475.9	409.89	0.0421	285.2	5.134	10.81	2.29	1.60
	8.14	31.86	66.89	-0.00	0.0618	10.83	476.3	410.38	0.0421	286.3	5.154	10.85	2.34	1.60
	9.16	31.83	66.87	-0.00	0.0618	10.77	473.9	408.37	0.0425	284.9	5.128	10.80	2.27	1.60
	10.14	31.85	66.87	0.00	0.0616	10.74	472.8	407.44	0.0423	285.3	5.135	10.82	2.29	1.60
	11.14	31.88	66.87	-0.00	0.0615	10.76	473.6	408.21	0.0426	288.2	5.188	10.93	2.43	1.60
	12.14	31.85	66.89	0.00	0.0614	10.72	471.5	406.23	0.0425	290.5	5.229	11.01	2.54	1.60
	13.14	31.83	66.89	0.00	0.0616	10.75	472.8	407.34	0.0427	290.3	5.225	11.00	2.53	1.60
	14.13	31.85	66.89	-0.00	0.0615	10.75	472.8	407.32	0.0423	287.2	5.169	10.89	2.38	1.60
	15.13	31.85	66.89	0.00	0.0615	10.76	473.3	407.75	0.0425	288.7	5.197	10.95	2.46	1.60
	16.13	31.85	66.87	0.00	0.0615	10.72	471.5	406.35	0.0427	288.0	5.183	10.92	2.42	1.60
	17.14	31.89	66.87	0.00	0.0614	10.72	471.7	406.61	0.0426	288.4	5.192	10.94	2.44	1.60
	18.16	31.85	66.87	-0.00	0.0616	10.77	474.0	408.49	0.0429	293.2	5.277	11.12	2.67	1.60
	19.14	31.85	66.87	0.00	0.0616	10.73	472.3	407.02	0.0432	293.3	5.279	11.12	2.68	1.60
	20.14	31.87	66.87	0.00	0.0614	10.72	471.5	406.41	0.0427	292.0	5.256	11.07	2.61	1.60
	21.14	31.85	66.85	0.00	0.0615	10.74	472.5	407.39	0.0436	296.3	5.334	11.24	2.82	1.60
	22.21	31.87	66.87	0.00	0.0618	10.80	475.3	409.61	0.0441	304.3	5.478	11.54	3.20	1.60
	23.15	31.85	66.87	-0.00	0.0617	10.80	475.0	409.41	0.0445	307.5	5.535	11.66	3.34	1.60
	24.15	31.87	66.87	-0.00	0.0619	10.81	475.6	409.91	0.0450	311.5	5.607	11.81	3.53	1.60
	25.23	31.88	66.89	0.00	0.0619	10.82	476.3	410.38	0.0450	311.8	5.612	11.82	3.54	1.60
	26.15	31.85	66.90	0.00	0.0620	10.86	477.8	411.63	0.0453	316.3	5.693	11.99	3.74	1.60
	27.16	31.85	66.89	-0.00	0.0620	10.88	478.5	412.26	0.0454	318.1	5.726	12.06	3.83	1.60
	28.14	31.83	66.89	0.00	0.0619	10.84	477.0	410.92	0.0456	317.6	5.716	12.04	3.80	1.60
	29.13	31.85	66.87	0.00	0.0621	10.86	477.8	411.80	0.0462	321.3	5.783	12.18	3.97	1.60
	30.14	31.88	66.87	0.00	0.0619	10.84	476.8	411.01	0.0458	319.1	5.744	12.10	3.87	1.60
	31.14	31.88	66.89	0.00	0.0618	10.80	475.1	409.35	0.0451	313.6	5.644	11.89	3.62	1.60
	32.21	31.87	66.87	0.00	0.0618	10.79	474.8	409.24	0.0454	313.9	5.651	11.91	3.64	1.60
	33.13	31.85	66.87	0.00	0.0620	10.77	473.8	408.34	0.0459	310.6	5.590	11.78	3.48	1.60
	34.13	31.90	66.92	0.00	0.0621	10.88	478.5	412.18	0.0464	325.2	5.854	12.33	4.14	1.60
	35.13	31.88	66.89	0.00	0.0620	10.85	477.4	411.32	0.0463	323.8	5.828	12.28	4.08	1.60
	36.16	31.86	66.87	0.00	0.0619	10.83	476.5	410.64	0.0461	321.1	5.780	12.18	3.96	1.60
	37.16	31.87	66.89	-0.00	0.0619	10.85	477.2	411.15	0.0461	322.0	5.797	12.21	4.00	1.60
	38.16	31.87	66.89	-0.00	0.0617	10.79	475.0	409.22	0.0456	319.0	5.742	12.09	3.86	1.60
	39.16	31.85	66.89	-0.00	0.0619	10.82	476.3	410.34	0.0459	320.5	5.769	12.15	3.93	1.60
	40.16	31.86	66.89	-0.00	0.0620	10.85	477.5	411.43	0.0461	321.1	5.780	12.17	3.96	1.60
	41.15	31.83	66.87	-0.00	0.0621	10.87	478.3	412.21	0.0466	326.3	5.874	12.37	4.19	1.60
	42.15	31.85	66.91	0.00	0.0620	10.86	477.8	411.52	0.0467	327.3	5.891	12.40	4.23	1.60
	43.15	31.87	66.89	-0.00	0.0621	10.87	478.4	412.16	0.0467	327.6	5.897	12.42	4.24	1.60
	44.13	31.87	66.89	0.00	0.0620	10.85	477.4	411.32	0.0465	327.4	5.893	12.41	4.23	1.60
	45.15	31.87	66.89	0.00	0.0620	10.86	477.8	411.65	0.0463	324.2	5.836	12.29	4.10	1.60
	46.21	31.90	66.89	0.00	0.0619	10.85	477.3	411.33	0.0458	323.9	5.831	12.28	4.08	1.60
	47.16	31.84	66.87	-0.00	0.0619	10.84	476.8	410.89	0.0463	325.2	5.853	12.33	4.14	1.60
	48.14	31.85	66.90	0.00	0.0620	10.85	477.4	411.31	0.0466	327.1	5.889	12.40	4.22	1.60
	49.14	31.84	66.92	-0.00	0.0619	10.84	477.1	410.90	0.0467	326.9	5.885	12.39	4.21	1.60
	50.12	31.85	66.89	0.00	0.0619	10.84	476.9	410.88	0.0467	328.1	5.905	12.44	4.26	1.60
	51.15	31.83	66.87	-0.00	0.0619	10.83	476.3	410.51	0.0468	327.8	5.901	12.43	4.25	1.60
	52.15	31.88	66.87	-0.00	0.0619	10.84	476.8	410.94	0.0467	327.5	5.896	12.42	4.24	1.60
	53.20	31.82	66.87	0.00	0.0620	10.85	477.4	411.39	0.0468	328.2	5.907	12.44	4.27	1.60
	54.15	31.85	66.90	0.00	0.0620	10.84	477.2	411.08	0.0465	326.4	5.875	12.37	4.19	1.60
	55.15	31.84	66.89	0.00	0.0619	10.80	475.0	409.24	0.0462	320.3	5.766	12.14	3.92	1.60
	56.15	31.81	66.89	0.00	0.0619	10.85	477.5	411.35	0.0474	334.2	6.016	12.67	4.53	1.60
	57.14	31.87	66.89	0.00	0.0619	10.83	476.6	410.67	0.0467	329.8	5.936	12.50	4.34	1.60
	58.14	31.85	66.87	0.00	0.0619	10.84	476.9	411.04	0.0464	328.6	5.915	12.46	4.29	1.60
	59.14	31.85	66.89	0.00	0.0620	10.86	477.8	411.62	0.0474	335.5	6.039	12.72	4.58	1.60
	60.22	31.85	66.87	0.00	0.0621	10.88	478.5	412.43	0.0474	336.1	6.050	12.75	4.61	1.60
	61.15	31.85	66.87	-0.00	0.0621	10.85	477.5	411.58	0.0472	333.2	5.997	12.63	4.48	1.60
	62.13	31.90	66.89	0.00	0.0621	10.85	477.6	411.55	0.0475	332.8	5.990	12.62	4.47	1.60
	63.13	31.90	66.89	-0.00	0.0621	10.86	477.7	411.62	0.0471	330.7	5.953	12.54	4.38	1.60
	64.13	31.85	66.89	0.00	0.0620	10.86	477.8	411.67	0.0472	334.1	6.014	12.67	4.52	1.60
	65.15	31.85	66.89	-0.00	0.0620	10.85	477.5	411.35	0.0475	332.2	5.979	12.59	4.44	1.60
	66.14	31.87	66.89	0.00	0.0620	10.86	477.8	411.67	0.0474	334.6	6.023	12.69	4.55	1.60
	67.16	31.86	66.86	0.00	0.0619	10.85	477.5	411.58	0.0469	333.0	5.994	12.63	4.48	1.60
	68.14	31.86	66.90	0.00	0.0620	10.84	477.1	411.04	0.0472	330.8	5.955	12.54	4.38	1.60
	69.16	31.87	66.86	-0.00	0.0620	10.85	477.3	411.41	0.0471	332.5	5.984	12.61	4.45	1.60
	70.15	31.86	66.87	-0.00	0.0620	10.84	477.1	411.22	0.0473	331.7	5.970	12.58	4.42	1.60
	71.14	31.92	66.87	0.00	0.0619	10.84	477.1	411.29	0.0472	333.0	5.994	12.63	4.48	1.60
	72.14	31.91	66.89	0.00	0.0619	10.84	476.8	410.87	0.0471	332.2	5.979	12.59	4.44	1.60
	73.15	31.92	66.89	0.00	0.0620	10.84	476.9	410.99	0.0476	335.9	6.047	12.74	4.61	1.60
	74.15	31.90	66.87	0.00	0.0620	10.84	476.9	411.09	0.0474	333.6	6.005	12.65	4.51	1.60
	75.15	31.89	66.87	-0.00	0.0620	10.86	477.7	411.72	0.0476	337.1	6.068	12.79	4.65	1.60
	76.16	31.93	66.89	0.00	0.0620	10.86	477.7	411.63	0.0479	338.5	6.092	12.83	4.71	1.60
	77.14	31.91	66.90	0.00	0.0621	10.85	477.6	411.50	0.0478	336.7	6.061	12.77	4.64	1.60
	78.14	31.91	66.87	-0.00	0.0620	10.86	477.9	412.00	0.0478	337.8	6.081	12.81	4.69	1.60
	79.16	31.91	66.89	-0.00	0.0621	10.86	478.0	411.88	0.0479	339.3	6.107	12.86	4.75	1.60
	80.22	31.91	66.89	-0.00	0.0621	10.86	478.0	411.90	0.0480	339.2	6.105	12.86	4.74	1.60
	81.14	31.91	66.87	0.00	0.0621	10.87	478.4	412.38	0.0483	343.1	6.175	13.01	4.91	1.60
	82.14	31.91	66.87	0.00	0.0621	10.87	478.1	412.17	0.0482	344.3	6.198	13.06	4.96	1.60
	83.15	31.91	66.87	0.00	0.0621	10.87	478.3	412.34	0.0485	344.8	6.207	13.08	4.98	1.60
	84.15	31.91	66.89	0.00	0.0622	10.88	478.9	412.67	0.0485	344.1	6.194	13.05	4.95	1.60
	85.13	31.96	66.87	0.00	0.0620	10.86	478.0	412.12	0.0483	341.5	6.147	12.96	4.84	1.61
	86.14	31.91	66.89	0.00	0.0621	10.87	478.2	412.08	0.0483	343.6	6.184	13.03	4.93	1.60
	87.14	31.91	66.87	0.00	0.0621	10.87	478.5	412.48	0.0485	345.5	6.220	13.11	5.01	1.60
	88.12	31.94	66.89	0.00	0.0621	10.87	478.4	412.28	0.0486	345.9	6.227	13.12	5.03	1.60
	89.12	31.90	66.89	0.00	0.0620	10.88	478.9	412.67	0.0484	344.8	6.207	13.07	4.98	1.60
	90.17	31.91	66.85	-0.00	0.0621	10.88	478.7	412.77	0.0485	345.7	6.223	13.12	5.02	1.60
	91.15	31.93	66.87	-0.00	0.0621	10.88	478.9	412.88	0.0484	345.1	6.212	13.09	4.99	1.60
	92.21	31.87	66.87	0.00	0.0621	10.87	478.2	412.14	0.0485	344.9	6.208	13.08	4.98	1.60
	93.13	31.91	66.87	0.00	0.0621	10.87	478.3	412.27	0.0485	345.0	6.210	13.09	4.99	1.60
	94.15	31.93	66.87	0.00	0.0622	10.88	478.7	412.64	0.0488	347.2	6.250	13.17	5.08	1.60
	95.13	31.91	66.89	0.00	0.0622	10.89	479.3	413.03	0.0488	348.1	6.267	13.20	5.12	1.60
	96.14	31.93	66.89	-0.00	0.0621	10.88	478.8	412.65	0.0485	347.4	6.253	13.17	5.09	1.60
	97.16	31.92	66.86	-0.00	0.0622	10.89	479.2	413.10	0.0487	347.7	6.259	13.19	5.10	1.61
	98.16	31.91	66.89	0.00	0.0621	10.84	477.1	411.13	0.0488	347.5	6.255	13.18	5.09	1.60
	99.16	31.93	66.92	-0.00	0.0622	10.90	479.4	413.00	0.0491	351.7	6.331	13.33	5.26	1.60
	100.15	31.91	66.87	-0.00	0.0622	10.89	479.3	413.14	0.0491	350.8	6.314	13.31	5.23	1.60
	101.14	31.91	66.87	0.00	0.0621	10.88	478.8	412.74	0.0491	351.5	6.327	13.33	5.25	1.60
	102.15	31.91	66.89	-0.00	0.0621	10.87	478.4	412.24	0.0490	349.9	6.298	13.27	5.19	1.60
	103.13	31.94	66.89	0.00	0.0621	10.89	479.0	412.79	0.0489	350.2	6.304	13.28	5.20	1.61
	104.13	31.91	66.89	0.00	0.0622	10.88	478.6	412.38	0.0494	350.9	6.317	13.31	5.23	1.60
	105.14	31.91	66.92	0.00	0.0620	10.87	478.1	411.85	0.0491	352.2	6.339	13.35	5.28	1.60
	106.16	31.95	66.84	-0.00	0.0622	10.90	479.5	413.54	0.0493	353.2	6.357	13.40	5.32	1.60
	107.14	31.93	66.89	0.00	0.0622	10.89	479.3	413.05	0.0492	351.9	6.333	13.34	5.27	1.60
	108.14	31.94	66.87	-0.00	0.0620	10.84	476.8	411.06	0.0490	349.9	6.297	13.27	5.19	1.61
	109.12	31.94	66.86	0.00	0.0621	10.86	477.6	411.80	0.0490	349.8	6.296	13.27	5.19	1.61
	110.15	31.93	66.87	0.00	0.0621	10.85	477.6	411.69	0.0493	351.8	6.332	13.34	5.27	1.60
	111.14	31.91	66.87	0.00	0.0622	10.88	478.6	412.60	0.0492	352.9	6.353	13.39	5.31	1.60
	112.15	31.91	66.89	0.00	0.0622	10.90	479.4	413.13	0.0494	354.0	6.372	13.42	5.36	1.60
	113.15	31.94	66.92	-0.00	0.0621	10.83	476.7	410.61	0.0492	351.4	6.326	13.32	5.25	1.60
	114.16	31.94	66.87	-0.00	0.0622	10.90	479.7	413.51	0.0496	356.8	6.423	13.54	5.47	1.61
	115.16	31.91	66.87	-0.00	0.0621	10.87	478.1	412.17	0.0495	355.2	6.393	13.47	5.40	1.61
	116.13	31.90	66.89	0.00	0.0621	10.86	477.8	411.69	0.0495	354.5	6.380	13.44	5.37	1.60
	117.14	31.94	66.89	-0.00	0.0621	10.88	478.8	412.64	0.0495	355.3	6.395	13.47	5.41	1.60
	118.14	31.94	66.87	0.00	0.0621	10.85	477.2	411.42	0.0497	354.4	6.379	13.44	5.37	1.60
