Jul 28 2015 at 10:47:58
Frequency: 1.00Hz.
CO2
Zero:  Value:0.95  Date:18 Mar 2005	 at 07:22:33	
Span:  Value:1.00  Date:18 Mar 2005	 at 07:25:09	
H2O
Zero:  Value:0.71  Date:18 Mar 2005	 at 07:52:31	
Span:  Value:0.99  Date:18 Mar 2005	 at 11:44:01	
	Relative Time	Temperature	Pressure	Aux Input	CO2 Absorptance	CO2 mmol/m3	CO2 mg/m3	CO2 umol/mol	H2O Absorptance	H2O mmol/m3	H2O g/m3	H2O mmol/mol	H2O(°C)	Cooler Voltage
	0.70	26.63	67.65	0.00	0.0625	10.92	480.4	402.21	0.0404	267.7	4.819	9.86	1.16	1.59
	1.72	26.63	67.65	0.00	0.0624	10.89	479.0	401.10	0.0403	267.1	4.809	9.84	1.13	1.59
	2.73	26.65	67.65	-0.00	0.0622	10.87	478.3	400.55	0.0412	278.3	5.009	10.25	1.70	1.59
	3.73	26.61	67.65	0.00	0.0623	10.87	478.5	400.62	0.0407	275.2	4.953	10.14	1.54	1.59
	4.73	26.63	67.65	-0.00	0.0621	10.86	477.7	399.96	0.0412	276.0	4.968	10.17	1.58	1.59
	5.74	26.63	67.65	-0.00	0.0620	10.83	476.7	399.13	0.0420	281.8	5.072	10.38	1.87	1.58
	6.71	26.61	67.65	0.00	0.0621	10.84	476.9	399.33	0.0418	280.6	5.051	10.34	1.81	1.58
	7.74	26.63	67.65	-0.00	0.0620	10.83	476.5	399.02	0.0421	280.3	5.045	10.33	1.80	1.58
	8.72	26.58	67.65	-0.00	0.0618	10.81	475.6	398.17	0.0426	286.6	5.159	10.56	2.11	1.59
	9.73	26.59	67.65	-0.00	0.0618	10.77	473.9	396.74	0.0429	291.8	5.252	10.75	2.36	1.59
	10.72	26.59	67.65	0.00	0.0619	10.76	473.5	396.40	0.0431	293.2	5.278	10.80	2.43	1.58
	11.72	26.59	67.65	0.00	0.0619	10.79	474.6	397.34	0.0435	292.3	5.262	10.77	2.39	1.58
	12.79	26.61	67.65	-0.00	0.0618	10.77	473.7	396.63	0.0442	303.0	5.453	11.16	2.89	1.58
	13.73	26.61	67.65	-0.00	0.0616	10.73	472.0	395.25	0.0446	301.7	5.431	11.12	2.83	1.58
	14.79	26.63	67.65	0.00	0.0617	10.73	472.3	395.51	0.0457	317.2	5.709	11.68	3.54	1.58
	15.72	26.64	67.65	0.00	0.0617	10.75	473.1	396.14	0.0464	324.6	5.843	11.96	3.87	1.59
	16.72	26.61	67.65	0.00	0.0615	10.72	471.9	395.10	0.0477	333.4	6.000	12.28	4.24	1.58
	17.78	26.61	67.67	0.00	0.0616	10.73	472.2	395.26	0.0480	340.1	6.121	12.52	4.53	1.58
	18.72	26.61	67.65	0.00	0.0617	10.73	472.3	395.44	0.0471	329.4	5.929	12.13	4.07	1.58
	19.72	26.59	67.67	0.00	0.0618	10.77	473.7	396.42	0.0465	328.2	5.908	12.09	4.02	1.58
	20.73	26.65	67.68	-0.00	0.0617	10.75	473.0	395.94	0.0457	317.4	5.713	11.69	3.55	1.58
	21.71	26.65	67.65	0.00	0.0617	10.73	472.1	395.34	0.0461	320.7	5.772	11.82	3.70	1.58
	22.73	26.65	67.65	-0.00	0.0614	10.68	469.8	393.40	0.0483	338.9	6.100	12.49	4.48	1.58
	23.71	26.65	67.65	0.00	0.0614	10.68	470.0	393.51	0.0491	348.1	6.267	12.83	4.87	1.58
	24.73	26.63	67.67	-0.00	0.0615	10.72	471.6	394.73	0.0482	342.1	6.157	12.60	4.61	1.58
	25.73	26.65	67.67	0.00	0.0614	10.69	470.3	393.72	0.0486	345.2	6.213	12.71	4.74	1.58
	26.72	26.65	67.63	-0.00	0.0614	10.68	469.7	393.45	0.0486	344.7	6.205	12.71	4.73	1.58
	27.71	26.68	67.65	0.00	0.0612	10.64	468.1	392.01	0.0477	337.0	6.067	12.42	4.40	1.58
	28.72	26.70	67.65	0.00	0.0609	10.56	464.7	389.22	0.0512	363.1	6.536	13.38	5.47	1.58
	29.70	26.74	67.67	0.00	0.0610	10.57	465.3	389.58	0.0515	377.5	6.795	13.91	6.04	1.58
	30.73	26.74	67.65	0.00	0.0609	10.58	465.6	389.98	0.0507	368.1	6.626	13.57	5.67	1.58
	31.73	26.78	67.65	0.00	0.0610	10.60	466.4	390.74	0.0502	358.5	6.453	13.21	5.29	1.58
	32.71	26.76	67.65	0.00	0.0610	10.58	465.6	390.03	0.0508	366.2	6.591	13.50	5.60	1.58
	33.79	26.76	67.65	0.00	0.0610	10.58	465.4	389.82	0.0522	384.4	6.920	14.17	6.30	1.58
	34.71	26.74	67.65	0.00	0.0611	10.59	466.0	390.30	0.0514	374.7	6.745	13.81	5.93	1.58
	35.72	26.68	67.65	-0.00	0.0610	10.60	466.4	390.58	0.0500	360.4	6.487	13.28	5.37	1.58
	36.72	26.68	67.65	-0.00	0.0611	10.61	466.8	390.88	0.0497	354.6	6.383	13.07	5.13	1.58
	37.72	26.71	67.65	0.00	0.0609	10.57	465.1	389.57	0.0496	355.5	6.398	13.10	5.17	1.58
	38.70	26.68	67.68	0.00	0.0612	10.63	467.6	391.42	0.0497	354.5	6.381	13.06	5.13	1.58
	39.72	26.69	67.65	0.00	0.0611	10.63	467.5	391.51	0.0495	353.7	6.366	13.03	5.09	1.58
	40.72	26.66	67.65	-0.00	0.0610	10.60	466.4	390.58	0.0498	355.9	6.406	13.11	5.18	1.58
	41.72	26.66	67.65	0.00	0.0612	10.63	467.8	391.76	0.0494	354.9	6.389	13.08	5.15	1.58
	42.73	26.67	67.65	0.00	0.0611	10.61	466.9	391.01	0.0495	352.3	6.341	12.98	5.04	1.58
	43.73	26.69	67.68	-0.00	0.0610	10.59	466.1	390.20	0.0496	355.3	6.395	13.09	5.16	1.58
	44.74	26.67	67.65	-0.00	0.0609	10.58	465.7	390.00	0.0492	350.8	6.314	12.93	4.98	1.58
	45.72	26.67	67.65	-0.00	0.0609	10.55	464.0	388.57	0.0499	352.2	6.340	12.98	5.03	1.58
	46.74	26.66	67.66	-0.00	0.0609	10.55	464.1	388.62	0.0505	361.5	6.507	13.32	5.41	1.58
	47.72	26.64	67.65	-0.00	0.0606	10.52	463.0	387.72	0.0508	366.4	6.595	13.50	5.60	1.58
	48.72	26.65	67.65	0.00	0.0605	10.48	461.1	386.14	0.0504	361.6	6.508	13.32	5.41	1.58
	49.72	26.63	67.65	-0.00	0.0608	10.54	463.6	388.16	0.0512	372.6	6.707	13.73	5.84	1.58
	50.72	26.63	67.65	0.00	0.0607	10.52	463.0	387.71	0.0516	374.6	6.743	13.80	5.92	1.58
	51.71	26.59	67.68	0.00	0.0609	10.57	464.9	389.03	0.0517	375.9	6.766	13.84	5.97	1.58
	52.70	26.59	67.67	0.00	0.0607	10.53	463.5	387.88	0.0522	380.0	6.840	13.99	6.12	1.58
	53.73	26.58	67.67	-0.00	0.0607	10.53	463.5	387.87	0.0525	381.8	6.872	14.06	6.19	1.58
	54.71	26.57	67.65	-0.00	0.0606	10.52	462.7	387.40	0.0524	381.3	6.864	14.05	6.17	1.58
	55.74	26.57	67.65	-0.00	0.0607	10.52	462.7	387.32	0.0527	386.8	6.962	14.25	6.38	1.58
	56.72	26.54	67.65	0.00	0.0607	10.52	462.7	387.27	0.0526	384.2	6.916	14.15	6.28	1.58
	57.72	26.53	67.70	0.00	0.0605	10.47	460.5	385.19	0.0526	379.9	6.839	13.98	6.12	1.58
	58.72	26.54	67.67	0.00	0.0606	10.49	461.6	386.29	0.0537	394.0	7.092	14.51	6.65	1.58
	59.73	26.52	67.67	-0.00	0.0604	10.45	459.9	384.84	0.0540	398.0	7.165	14.65	6.79	1.58
	60.73	26.53	67.65	-0.00	0.0604	10.42	458.5	383.78	0.0538	396.8	7.143	14.61	6.75	1.58
	61.73	26.54	67.65	-0.00	0.0603	10.47	460.5	385.48	0.0533	394.9	7.107	14.54	6.68	1.58
	62.73	26.52	67.65	-0.00	0.0604	10.41	458.2	383.51	0.0542	397.9	7.163	14.66	6.79	1.58
	63.73	26.52	67.68	-0.00	0.0605	10.47	460.9	385.63	0.0541	398.4	7.171	14.67	6.81	1.58
	64.71	26.52	67.65	0.00	0.0603	10.44	459.3	384.44	0.0544	400.4	7.207	14.75	6.88	1.58
	65.71	26.53	67.65	0.00	0.0603	10.42	458.3	383.63	0.0549	409.9	7.379	15.10	7.23	1.58
	66.71	26.56	67.65	0.00	0.0602	10.43	459.0	384.24	0.0539	400.6	7.211	14.76	6.89	1.58
	67.80	26.54	67.67	-0.00	0.0604	10.44	459.4	384.46	0.0540	397.9	7.162	14.65	6.79	1.58
	68.72	26.56	67.65	0.00	0.0601	10.41	458.0	383.40	0.0552	411.5	7.407	15.16	7.28	1.58
	69.70	26.58	67.65	0.00	0.0602	10.40	457.8	383.26	0.0555	415.1	7.473	15.29	7.41	1.58
	70.73	26.62	67.67	-0.00	0.0601	10.42	458.6	383.84	0.0554	411.2	7.401	15.14	7.27	1.58
	71.71	26.55	67.68	0.00	0.0600	10.37	456.5	381.96	0.0563	417.2	7.510	15.36	7.48	1.58
	72.73	26.56	67.65	-0.00	0.0601	10.39	457.2	382.77	0.0555	417.0	7.507	15.36	7.48	1.58
	73.73	26.58	67.65	-0.00	0.0601	10.37	456.3	381.99	0.0561	422.8	7.610	15.57	7.68	1.58
	74.71	26.58	67.65	-0.00	0.0601	10.38	456.6	382.22	0.0563	421.5	7.587	15.53	7.64	1.58
	75.71	26.59	67.65	0.00	0.0600	10.37	456.3	382.00	0.0563	422.5	7.605	15.56	7.67	1.58
	76.80	26.57	67.65	0.00	0.0599	10.34	454.8	380.71	0.0568	426.1	7.669	15.69	7.79	1.58
	77.72	26.58	67.65	0.00	0.0600	10.35	455.3	381.18	0.0569	426.7	7.680	15.72	7.81	1.58
	78.70	26.63	67.65	-0.00	0.0599	10.35	455.2	381.18	0.0570	430.5	7.749	15.86	7.95	1.58
	79.72	26.62	67.65	-0.00	0.0599	10.34	455.1	381.09	0.0570	432.4	7.783	15.93	8.01	1.58
	80.72	26.55	67.65	0.00	0.0598	10.33	454.5	380.42	0.0567	421.3	7.583	15.52	7.62	1.58
	81.73	26.59	67.65	0.00	0.0598	10.32	454.2	380.26	0.0571	430.5	7.748	15.86	7.94	1.58
	82.71	26.59	67.65	0.00	0.0599	10.34	455.0	380.95	0.0570	429.8	7.737	15.83	7.92	1.58
	83.73	26.59	67.67	0.00	0.0600	10.37	456.1	381.73	0.0568	428.2	7.708	15.77	7.87	1.58
	84.72	26.65	67.65	-0.00	0.0597	10.27	452.0	378.50	0.0560	422.8	7.610	15.58	7.68	1.58
	85.72	26.63	67.67	0.00	0.0599	10.35	455.6	381.32	0.0561	419.8	7.557	15.46	7.58	1.58
	86.72	26.65	67.67	-0.00	0.0600	10.37	456.1	381.78	0.0563	422.8	7.611	15.57	7.68	1.58
	87.72	26.63	67.65	0.00	0.0599	10.36	455.7	381.55	0.0567	424.5	7.642	15.64	7.74	1.58
	88.72	26.65	67.63	0.00	0.0600	10.36	455.9	381.92	0.0566	424.2	7.635	15.63	7.73	1.58
	89.73	26.66	67.65	-0.00	0.0598	10.32	453.9	380.13	0.0573	431.8	7.772	15.91	7.99	1.58
	90.73	26.67	67.65	-0.00	0.0598	10.33	454.6	380.70	0.0572	430.2	7.743	15.85	7.94	1.58
	91.71	26.71	67.67	-0.00	0.0598	10.33	454.5	380.51	0.0570	433.0	7.795	15.95	8.04	1.58
	92.73	26.69	67.66	-0.00	0.0595	10.27	451.8	378.33	0.0587	443.8	7.989	16.35	8.40	1.58
	93.69	26.70	67.65	0.00	0.0596	10.28	452.1	378.66	0.0585	447.9	8.063	16.51	8.54	1.58
	94.74	26.71	67.65	-0.00	0.0594	10.26	451.4	378.08	0.0588	447.4	8.053	16.49	8.52	1.58
	95.78	26.70	67.68	0.00	0.0596	10.25	451.2	377.73	0.0580	441.7	7.950	16.27	8.33	1.58
	96.72	26.68	67.65	0.00	0.0594	10.23	450.1	376.92	0.0590	453.9	8.169	16.72	8.73	1.58
	97.72	26.69	67.65	0.00	0.0594	10.23	450.3	377.12	0.0590	452.3	8.142	16.67	8.68	1.58
	98.73	26.67	67.67	-0.00	0.0595	10.27	451.7	378.17	0.0581	441.5	7.946	16.26	8.32	1.58
	99.73	26.67	67.65	-0.00	0.0594	10.26	451.5	378.07	0.0587	446.5	8.038	16.45	8.49	1.58
	100.73	26.64	67.62	-0.00	0.0595	10.25	451.0	377.79	0.0587	448.6	8.075	16.54	8.55	1.58
	101.71	26.63	67.65	0.00	0.0593	10.22	449.6	376.44	0.0585	444.2	7.995	16.36	8.41	1.58
	102.71	26.63	67.68	-0.00	0.0595	10.24	450.7	377.28	0.0579	441.7	7.951	16.27	8.33	1.58
	103.72	26.58	67.65	0.00	0.0593	10.23	450.0	376.68	0.0591	454.2	8.176	16.73	8.73	1.58
	104.71	26.58	67.67	0.00	0.0593	10.24	450.7	377.20	0.0589	452.0	8.136	16.64	8.66	1.58
	105.72	26.55	67.65	-0.00	0.0592	10.19	448.5	375.41	0.0590	450.1	8.102	16.58	8.60	1.58
	106.80	26.56	67.65	-0.00	0.0594	10.23	450.0	376.68	0.0591	452.4	8.143	16.66	8.67	1.58
	107.70	26.58	67.65	0.00	0.0594	10.23	450.1	376.81	0.0593	454.0	8.172	16.72	8.73	1.58
	108.72	26.58	67.65	0.00	0.0593	10.22	449.6	376.38	0.0590	452.9	8.153	16.68	8.69	1.58
	109.78	26.61	67.65	0.00	0.0594	10.22	449.6	376.43	0.0590	452.6	8.146	16.67	8.68	1.58
	110.71	26.63	67.65	0.00	0.0594	10.24	450.7	377.41	0.0588	449.3	8.087	16.55	8.58	1.58
	111.71	26.64	67.63	0.00	0.0594	10.22	449.9	376.82	0.0595	455.2	8.194	16.78	8.77	1.58
	112.73	26.64	67.65	-0.00	0.0594	10.25	451.0	377.62	0.0598	453.1	8.155	16.69	8.70	1.58
	113.72	26.67	67.65	-0.00	0.0594	10.21	449.4	376.35	0.0599	461.1	8.299	16.99	8.96	1.58
	114.72	26.64	67.65	-0.00	0.0592	10.20	449.0	375.98	0.0593	456.5	8.216	16.82	8.81	1.58
	115.72	26.67	67.67	0.00	0.0594	10.21	449.3	376.12	0.0596	457.1	8.227	16.84	8.83	1.58
	116.70	26.67	67.64	0.00	0.0593	10.20	448.9	375.95	0.0596	458.9	8.261	16.91	8.89	1.58
	117.73	26.69	67.65	-0.00	0.0593	10.20	448.8	375.84	0.0601	462.3	8.321	17.03	9.00	1.58
	118.72	26.70	67.62	-0.00	0.0592	10.20	449.0	376.21	0.0607	468.3	8.430	17.27	9.19	1.58
	119.70	26.68	67.65	0.00	0.0591	10.17	447.5	374.74	0.0613	478.4	8.612	17.63	9.51	1.58
	120.71	26.74	67.65	-0.00	0.0592	10.20	448.8	375.90	0.0609	473.1	8.515	17.44	9.35	1.58
	121.71	26.74	67.67	0.00	0.0592	10.18	447.8	374.95	0.0609	475.7	8.562	17.52	9.43	1.58
