Jul 28 2015 at 13:06:27
Frequency: 1.00Hz.
CO2
Zero:  Value:0.95  Date:18 Mar 2005	 at 07:22:33	
Span:  Value:1.00  Date:18 Mar 2005	 at 07:25:09	
H2O
Zero:  Value:0.71  Date:18 Mar 2005	 at 07:52:31	
Span:  Value:0.99  Date:18 Mar 2005	 at 11:44:01	
	Relative Time	Temperature	Pressure	Aux Input	CO2 Absorptance	CO2 mmol/m3	CO2 mg/m3	CO2 umol/mol	H2O Absorptance	H2O mmol/m3	H2O g/m3	H2O mmol/mol	H2O(°C)	Cooler Voltage
	0.33	31.00	67.70	0.00	0.0628	11.00	484.1	410.91	0.0424	289.6	5.212	10.81	2.46	1.60
	1.33	30.96	67.73	0.00	0.0627	11.00	484.0	410.62	0.0428	290.2	5.223	10.83	2.48	1.60
	2.32	30.97	67.70	0.00	0.0626	10.96	482.3	409.35	0.0428	291.5	5.247	10.89	2.55	1.60
	3.35	31.02	67.72	-0.00	0.0627	10.97	482.7	409.68	0.0434	297.1	5.347	11.09	2.82	1.60
	4.34	30.98	67.70	0.00	0.0626	10.94	481.4	408.60	0.0433	295.1	5.312	11.02	2.72	1.60
	5.33	31.06	67.72	0.00	0.0626	10.95	481.9	409.01	0.0440	299.9	5.398	11.20	2.95	1.60
	6.33	31.10	67.70	0.00	0.0623	10.86	477.9	405.77	0.0454	316.8	5.702	11.84	3.73	1.60
	7.33	31.06	67.70	0.00	0.0621	10.83	476.5	404.58	0.0450	310.0	5.579	11.58	3.42	1.60
	8.35	31.02	67.72	-0.00	0.0621	10.84	476.8	404.64	0.0456	317.2	5.710	11.85	3.75	1.60
	9.34	30.99	67.65	0.00	0.0621	10.83	476.4	404.69	0.0460	322.8	5.810	12.06	3.99	1.60
	10.34	30.91	67.70	-0.00	0.0621	10.83	476.5	404.40	0.0463	321.5	5.787	12.01	3.93	1.60
	11.32	30.80	67.68	0.00	0.0621	10.82	476.3	404.19	0.0466	326.5	5.876	12.19	4.14	1.60
	12.32	30.81	67.68	0.00	0.0619	10.81	475.4	403.48	0.0467	327.0	5.886	12.21	4.17	1.59
	13.32	30.86	67.72	0.00	0.0618	10.74	472.4	400.70	0.0453	319.4	5.749	11.92	3.84	1.60
	14.34	30.84	67.70	-0.00	0.0620	10.83	476.5	404.26	0.0454	310.8	5.595	11.60	3.45	1.60
	15.32	30.80	67.68	0.00	0.0619	10.79	474.6	402.76	0.0457	320.5	5.769	11.97	3.88	1.60
	16.35	30.83	67.70	-0.00	0.0619	10.80	475.2	403.19	0.0467	327.7	5.898	12.23	4.20	1.59
	17.35	30.83	67.65	-0.00	0.0620	10.81	475.8	403.99	0.0469	327.5	5.894	12.23	4.19	1.60
	18.34	30.87	67.70	0.00	0.0620	10.82	476.0	403.86	0.0483	340.8	6.134	12.72	4.76	1.59
	19.33	30.86	67.68	0.00	0.0618	10.79	474.8	402.99	0.0484	343.0	6.174	12.81	4.85	1.60
	20.34	30.89	67.68	0.00	0.0618	10.76	473.6	402.07	0.0484	343.3	6.179	12.82	4.87	1.60
	21.32	30.91	67.70	0.00	0.0618	10.75	473.2	401.56	0.0494	349.2	6.285	13.04	5.11	1.60
	22.36	30.90	67.72	-0.00	0.0616	10.73	472.0	400.37	0.0501	358.5	6.452	13.38	5.49	1.60
	23.34	30.94	67.68	0.00	0.0615	10.71	471.3	400.18	0.0525	372.5	6.706	13.92	6.05	1.60
	24.34	30.97	67.68	0.00	0.0615	10.69	470.5	399.55	0.0522	384.0	6.913	14.35	6.49	1.59
	25.33	30.98	67.70	-0.00	0.0614	10.69	470.1	399.10	0.0518	377.9	6.803	14.12	6.26	1.60
	26.33	30.93	67.70	-0.00	0.0613	10.65	468.6	397.72	0.0527	382.7	6.889	14.29	6.44	1.60
	27.33	30.89	67.70	0.00	0.0613	10.68	469.8	398.62	0.0517	375.6	6.761	14.02	6.16	1.60
	28.33	30.91	67.70	0.00	0.0615	10.70	470.8	399.52	0.0518	377.3	6.792	14.09	6.23	1.59
	29.34	30.89	67.70	-0.00	0.0615	10.71	471.0	399.71	0.0509	367.2	6.610	13.71	5.84	1.59
	30.33	30.89	67.70	-0.00	0.0616	10.73	471.9	400.46	0.0503	361.6	6.509	13.50	5.61	1.59
	31.36	30.89	67.70	-0.00	0.0617	10.74	472.6	401.08	0.0506	364.4	6.559	13.61	5.73	1.60
	32.34	30.91	67.70	0.00	0.0616	10.73	472.1	400.61	0.0506	364.5	6.562	13.61	5.73	1.60
	33.34	30.92	67.70	0.00	0.0615	10.71	471.4	400.12	0.0512	367.9	6.622	13.74	5.86	1.60
	34.34	30.91	67.68	0.00	0.0615	10.70	470.6	399.53	0.0526	381.6	6.868	14.25	6.39	1.59
	35.32	30.94	67.68	0.00	0.0614	10.69	470.2	399.19	0.0530	387.7	6.978	14.48	6.62	1.59
	36.33	30.94	67.70	0.00	0.0614	10.68	470.1	399.00	0.0527	385.3	6.935	14.39	6.53	1.60
	37.31	30.94	67.68	0.00	0.0613	10.68	469.7	398.83	0.0530	385.4	6.937	14.40	6.54	1.60
	38.36	30.90	67.70	-0.00	0.0613	10.65	468.6	397.63	0.0530	389.0	7.002	14.52	6.67	1.60
	39.34	30.82	67.73	-0.00	0.0614	10.66	469.0	397.71	0.0530	389.3	7.008	14.53	6.68	1.59
	40.34	30.86	67.68	-0.00	0.0614	10.69	470.2	399.09	0.0531	388.5	6.993	14.51	6.65	1.59
	41.34	30.85	67.70	0.00	0.0614	10.68	469.9	398.66	0.0536	396.0	7.128	14.78	6.93	1.60
	42.32	30.87	67.70	0.00	0.0614	10.66	468.9	397.89	0.0546	405.8	7.305	15.15	7.29	1.60
	43.35	30.85	67.68	-0.00	0.0612	10.66	469.2	398.24	0.0547	407.9	7.342	15.23	7.36	1.60
	44.32	30.83	67.70	0.00	0.0612	10.63	467.8	396.89	0.0563	420.5	7.570	15.70	7.81	1.60
	45.35	30.85	67.70	-0.00	0.0610	10.61	466.9	396.19	0.0571	433.0	7.794	16.16	8.24	1.60
	46.32	30.87	67.70	0.00	0.0609	10.57	465.1	394.68	0.0571	432.6	7.786	16.15	8.22	1.60
	47.31	30.87	67.70	0.00	0.0611	10.60	466.2	395.59	0.0568	430.6	7.751	16.08	8.16	1.59
	48.34	30.89	67.72	-0.00	0.0610	10.57	465.3	394.70	0.0579	444.2	7.995	16.58	8.62	1.60
	49.33	30.92	67.68	0.00	0.0612	10.63	467.8	397.12	0.0562	420.9	7.577	15.72	7.82	1.60
	50.42	30.89	67.70	-0.00	0.0612	10.64	468.1	397.22	0.0556	419.5	7.551	15.66	7.77	1.60
	51.34	30.89	67.72	0.00	0.0612	10.63	467.8	396.82	0.0568	427.9	7.702	15.97	8.06	1.60
	52.34	30.86	67.68	0.00	0.0611	10.61	466.8	396.24	0.0566	425.6	7.660	15.89	7.98	1.59
	53.34	30.84	67.70	-0.00	0.0609	10.57	465.1	394.66	0.0562	422.5	7.604	15.77	7.87	1.60
	54.35	30.86	67.68	-0.00	0.0609	10.59	465.8	395.35	0.0574	426.1	7.670	15.91	8.00	1.60
	55.33	30.86	67.70	0.00	0.0606	10.52	463.0	392.87	0.0595	454.6	8.182	16.97	8.96	1.60
	56.35	30.83	67.73	-0.00	0.0608	10.54	463.8	393.33	0.0588	449.9	8.097	16.79	8.80	1.60
	57.33	30.81	67.70	0.00	0.0609	10.57	464.9	394.42	0.0589	451.9	8.134	16.87	8.87	1.60
	58.33	30.85	67.70	0.00	0.0609	10.55	464.4	394.05	0.0586	450.3	8.106	16.81	8.82	1.60
	59.33	30.85	67.70	0.00	0.0610	10.58	465.5	394.96	0.0583	443.9	7.990	16.57	8.60	1.60
	60.34	30.86	67.70	-0.00	0.0609	10.56	464.8	394.35	0.0583	445.0	8.009	16.61	8.64	1.60
	61.32	30.85	67.70	0.00	0.0608	10.54	463.7	393.48	0.0587	447.8	8.060	16.72	8.73	1.60
	62.34	30.83	67.68	-0.00	0.0609	10.55	464.1	393.91	0.0589	452.3	8.141	16.89	8.88	1.59
	63.34	30.85	67.68	0.00	0.0609	10.56	464.6	394.34	0.0595	457.5	8.234	17.08	9.05	1.60
	64.33	30.87	67.70	0.00	0.0608	10.54	463.9	393.67	0.0606	467.6	8.417	17.46	9.38	1.60
	65.33	30.90	67.68	0.00	0.0607	10.53	463.1	393.16	0.0597	459.9	8.278	17.18	9.13	1.60
	66.33	30.87	67.70	0.00	0.0606	10.49	461.7	391.72	0.0599	463.0	8.335	17.29	9.23	1.60
	67.34	30.86	67.72	0.00	0.0605	10.49	461.7	391.65	0.0592	450.9	8.116	16.83	8.84	1.60
	68.33	30.84	67.70	0.00	0.0606	10.49	461.5	391.60	0.0599	459.6	8.273	17.16	9.12	1.59
	69.33	30.84	67.70	0.00	0.0607	10.52	462.8	392.67	0.0594	456.9	8.225	17.06	9.03	1.60
	70.34	30.87	67.70	-0.00	0.0607	10.50	461.8	391.84	0.0596	456.8	8.223	17.06	9.03	1.60
	71.34	30.79	67.68	0.00	0.0608	10.53	463.1	393.01	0.0593	457.8	8.241	17.09	9.06	1.60
	72.32	30.83	67.70	0.00	0.0607	10.53	463.5	393.25	0.0602	459.5	8.270	17.15	9.11	1.60
	73.34	30.83	67.68	0.00	0.0608	10.52	462.8	392.75	0.0603	470.9	8.477	17.59	9.48	1.60
	74.32	30.85	67.68	0.00	0.0604	10.46	460.2	390.61	0.0635	502.1	9.038	18.75	10.44	1.60
	75.33	30.83	67.70	0.00	0.0605	10.48	461.0	391.14	0.0617	485.4	8.738	18.12	9.93	1.60
	76.33	30.80	67.70	0.00	0.0607	10.51	462.5	392.37	0.0614	478.6	8.616	17.87	9.72	1.60
	77.33	30.75	67.68	0.00	0.0607	10.51	462.3	392.30	0.0609	477.0	8.586	17.81	9.67	1.60
	78.33	30.79	67.70	0.00	0.0607	10.52	463.0	392.77	0.0607	469.8	8.456	17.53	9.44	1.60
	79.34	30.80	67.70	-0.00	0.0608	10.52	463.1	392.81	0.0606	469.5	8.451	17.52	9.43	1.60
	80.32	30.84	67.72	0.00	0.0606	10.51	462.5	392.26	0.0608	473.5	8.524	17.67	9.56	1.60
	81.32	30.80	67.70	0.00	0.0606	10.49	461.6	391.63	0.0612	476.8	8.582	17.80	9.66	1.60
	82.40	30.85	67.77	-0.00	0.0604	10.46	460.3	390.12	0.0628	491.3	8.844	18.32	10.11	1.60
	83.35	30.76	67.72	-0.00	0.0605	10.47	460.9	390.78	0.0623	489.0	8.801	18.24	10.04	1.60
	84.35	30.75	67.75	-0.00	0.0603	10.44	459.4	389.41	0.0650	521.0	9.377	19.43	10.99	1.60
	85.33	30.79	67.70	0.00	0.0603	10.42	458.7	389.08	0.0642	515.5	9.279	19.24	10.83	1.60
	86.33	30.79	67.70	0.00	0.0603	10.42	458.6	389.02	0.0641	508.0	9.143	18.96	10.61	1.60
	87.33	30.82	67.72	0.00	0.0604	10.44	459.4	389.63	0.0634	501.4	9.025	18.71	10.41	1.60
	88.33	30.79	67.70	0.00	0.0605	10.45	459.7	390.02	0.0631	501.4	9.025	18.72	10.41	1.60
	89.33	30.81	67.70	0.00	0.0604	10.45	460.0	390.23	0.0635	500.1	9.001	18.67	10.37	1.60
	90.34	30.83	67.72	0.00	0.0605	10.46	460.2	390.29	0.0632	501.1	9.019	18.70	10.41	1.60
	91.34	30.83	67.70	0.00	0.0605	10.48	461.1	391.19	0.0633	498.3	8.969	18.60	10.32	1.60
	92.32	30.83	67.70	0.00	0.0604	10.46	460.2	390.43	0.0639	505.2	9.093	18.86	10.53	1.60
	93.35	30.81	67.70	-0.00	0.0604	10.45	459.8	390.11	0.0639	505.4	9.097	18.86	10.53	1.60
	94.33	30.77	67.70	-0.00	0.0605	10.47	460.5	390.64	0.0626	496.4	8.935	18.53	10.26	1.60
	95.35	30.81	67.70	-0.00	0.0606	10.49	461.5	391.53	0.0621	485.8	8.744	18.13	9.94	1.60
	96.42	30.81	67.70	-0.00	0.0606	10.49	461.5	391.48	0.0623	489.9	8.818	18.29	10.07	1.60
	97.34	30.83	67.70	-0.00	0.0606	10.49	461.3	391.41	0.0625	488.9	8.800	18.25	10.04	1.60
	98.34	30.81	67.70	-0.00	0.0605	10.48	461.1	391.18	0.0628	494.6	8.904	18.46	10.21	1.60
	99.33	30.80	67.70	0.00	0.0606	10.49	461.7	391.62	0.0621	486.5	8.756	18.16	9.96	1.60
	100.32	30.78	67.72	0.00	0.0605	10.49	461.5	391.33	0.0621	484.8	8.727	18.09	9.91	1.60
	101.32	30.79	67.70	0.00	0.0605	10.47	460.6	390.73	0.0622	488.2	8.788	18.22	10.01	1.60
	102.32	30.84	67.70	0.00	0.0606	10.51	462.2	392.18	0.0625	489.4	8.809	18.27	10.05	1.60
	103.33	30.77	67.70	0.00	0.0605	10.48	461.2	391.24	0.0633	498.6	8.974	18.61	10.33	1.60
	104.32	30.75	67.72	0.00	0.0604	10.47	460.5	390.44	0.0633	500.2	9.003	18.66	10.37	1.60
	105.33	30.80	67.70	0.00	0.0605	10.48	461.2	391.25	0.0629	492.2	8.860	18.37	10.14	1.60
	106.33	30.73	67.73	0.00	0.0606	10.49	461.6	391.34	0.0622	484.8	8.727	18.09	9.91	1.60
	107.33	30.73	67.70	0.00	0.0606	10.49	461.6	391.47	0.0621	490.1	8.822	18.29	10.07	1.60
	108.34	30.66	67.70	-0.00	0.0606	10.50	462.1	391.81	0.0611	477.7	8.598	17.82	9.68	1.60
	109.34	30.61	67.70	-0.00	0.0605	10.49	461.5	391.26	0.0612	478.3	8.610	17.84	9.70	1.60
	110.34	30.63	67.70	-0.00	0.0606	10.49	461.4	391.15	0.0610	472.6	8.507	17.63	9.52	1.60
	111.34	30.66	67.70	-0.00	0.0606	10.51	462.4	392.05	0.0613	476.7	8.580	17.78	9.65	1.60
	112.34	30.65	67.70	0.00	0.0606	10.48	461.0	390.88	0.0622	488.3	8.790	18.22	10.01	1.60
	113.33	30.69	67.70	-0.00	0.0605	10.48	460.9	390.89	0.0627	489.7	8.814	18.27	10.05	1.60
	114.33	30.67	67.72	0.00	0.0605	10.47	460.5	390.33	0.0627	493.3	8.880	18.40	10.16	1.60
	115.32	30.65	67.72	0.00	0.0604	10.43	459.0	389.10	0.0637	516.0	9.289	19.25	10.84	1.60
	116.33	30.68	67.70	0.00	0.0605	10.48	461.1	390.98	0.0624	489.4	8.810	18.26	10.05	1.60
	117.34	30.65	67.68	0.00	0.0606	10.49	461.6	391.51	0.0611	477.5	8.595	17.82	9.68	1.60
	118.34	30.63	67.70	0.00	0.0605	10.46	460.1	390.06	0.0617	482.6	8.687	18.00	9.83	1.60
	119.34	30.68	67.70	0.00	0.0607	10.50	462.2	391.97	0.0616	481.1	8.659	17.95	9.79	1.60
	120.32	30.65	67.70	0.00	0.0606	10.50	461.8	391.56	0.0613	478.2	8.607	17.84	9.70	1.60
	121.34	30.67	67.70	0.00	0.0606	10.51	462.5	392.16	0.0605	469.3	8.448	17.51	9.42	1.60
