Jul 28 2015 at 16:01:28
Frequency: 1.00Hz.
CO2
Zero:  Value:0.95  Date:18 Mar 2005	 at 07:22:33	
Span:  Value:1.00  Date:18 Mar 2005	 at 07:25:09	
H2O
Zero:  Value:0.71  Date:18 Mar 2005	 at 07:52:31	
Span:  Value:0.99  Date:18 Mar 2005	 at 11:44:01	
	Relative Time	Temperature	Pressure	Aux Input	CO2 Absorptance	CO2 mmol/m3	CO2 mg/m3	CO2 umol/mol	H2O Absorptance	H2O mmol/m3	H2O g/m3	H2O mmol/mol	H2O(°C)	Cooler Voltage
	0.37	31.31	66.87	0.00	0.0620	10.85	477.4	410.69	0.0342	218.0	3.925	8.25	-1.45	1.60
	1.39	31.27	66.87	0.00	0.0619	10.85	477.3	410.60	0.0371	241.6	4.349	9.14	-0.05	1.60
	2.37	31.27	66.89	0.00	0.0619	10.84	476.9	410.10	0.0364	239.1	4.304	9.05	-0.19	1.60
	3.37	31.27	66.87	0.00	0.0617	10.78	474.4	408.07	0.0370	238.5	4.293	9.03	-0.23	1.60
	4.48	31.27	66.89	-0.00	0.0618	10.82	476.1	409.39	0.0374	244.8	4.406	9.26	0.13	1.60
	5.38	31.29	66.87	0.00	0.0617	10.78	474.3	408.00	0.0372	245.7	4.422	9.30	0.18	1.60
	6.38	31.29	66.89	0.00	0.0616	10.79	474.7	408.22	0.0382	251.0	4.518	9.50	0.48	1.60
	7.38	31.27	66.87	0.00	0.0616	10.76	473.4	407.19	0.0385	253.8	4.568	9.60	0.63	1.60
	8.39	31.25	66.87	0.00	0.0617	10.79	474.8	408.37	0.0388	255.2	4.593	9.66	0.70	1.60
	9.38	31.27	66.87	0.00	0.0615	10.75	473.1	407.00	0.0386	253.5	4.563	9.60	0.62	1.60
	10.39	31.27	66.89	-0.00	0.0613	10.69	470.3	404.42	0.0383	252.0	4.537	9.54	0.54	1.60
	11.39	31.24	66.89	0.00	0.0614	10.70	470.7	404.76	0.0387	255.9	4.606	9.68	0.74	1.60
	12.37	31.27	66.89	0.00	0.0612	10.69	470.2	404.31	0.0402	263.2	4.737	9.96	1.13	1.60
	13.38	31.24	66.87	-0.00	0.0610	10.64	468.3	402.79	0.0429	289.0	5.202	10.94	2.44	1.60
	14.40	31.25	66.87	-0.00	0.0609	10.63	467.7	402.28	0.0430	288.9	5.200	10.93	2.44	1.60
	15.38	31.24	66.87	-0.00	0.0611	10.62	467.4	401.99	0.0415	282.4	5.083	10.69	2.12	1.60
	16.38	31.25	66.87	-0.00	0.0610	10.62	467.4	402.08	0.0404	269.3	4.848	10.19	1.45	1.60
	17.39	31.25	66.87	0.00	0.0610	10.66	468.9	403.35	0.0406	270.0	4.860	10.22	1.49	1.60
	18.39	31.25	66.87	0.00	0.0612	10.68	470.1	404.34	0.0413	276.0	4.968	10.45	1.80	1.60
	19.38	31.27	66.89	0.00	0.0609	10.61	466.9	401.45	0.0440	288.7	5.197	10.92	2.43	1.60
	20.37	31.23	66.89	0.00	0.0607	10.57	465.2	399.97	0.0461	315.1	5.671	11.92	3.66	1.60
	21.39	31.26	66.87	0.00	0.0608	10.61	466.8	401.52	0.0473	337.6	6.078	12.78	4.65	1.60
	22.39	31.25	66.89	-0.00	0.0609	10.58	465.6	400.36	0.0457	326.8	5.883	12.36	4.18	1.60
	23.37	31.27	66.89	0.00	0.0607	10.52	462.9	398.07	0.0449	314.4	5.659	11.90	3.63	1.60
	24.40	31.25	66.89	-0.00	0.0607	10.55	464.0	398.98	0.0476	349.2	6.286	13.21	5.13	1.60
	25.38	31.25	66.87	0.00	0.0605	10.52	462.8	398.05	0.0514	364.1	6.554	13.78	5.73	1.60
	26.39	31.27	66.87	-0.00	0.0606	10.52	462.9	398.23	0.0498	360.5	6.489	13.64	5.59	1.60
	27.38	31.25	66.89	0.00	0.0605	10.52	462.9	398.02	0.0478	345.5	6.219	13.07	4.98	1.60
	28.38	31.25	66.89	0.00	0.0606	10.53	463.4	398.47	0.0484	346.6	6.238	13.11	5.02	1.60
	29.39	31.27	66.87	-0.00	0.0605	10.53	463.2	398.43	0.0488	345.8	6.224	13.09	4.99	1.60
	30.39	31.27	66.87	0.00	0.0605	10.49	461.7	397.17	0.0483	344.0	6.191	13.02	4.91	1.60
	31.37	31.29	66.87	0.00	0.0604	10.48	461.2	396.73	0.0489	345.1	6.211	13.06	4.96	1.60
	32.46	31.30	66.89	-0.00	0.0603	10.47	460.5	396.04	0.0488	351.5	6.326	13.30	5.22	1.60
	33.38	31.27	66.87	0.00	0.0603	10.46	460.2	395.91	0.0483	341.4	6.145	12.92	4.80	1.60
	34.38	31.29	66.89	0.00	0.0604	10.49	461.4	396.81	0.0484	342.1	6.157	12.94	4.83	1.60
	35.38	31.27	66.89	0.00	0.0601	10.42	458.3	394.10	0.0476	342.1	6.157	12.94	4.83	1.60
	36.38	31.25	66.87	-0.00	0.0604	10.44	459.5	395.24	0.0477	333.2	5.997	12.61	4.46	1.60
	37.39	31.27	66.87	-0.00	0.0601	10.44	459.2	395.02	0.0499	356.8	6.422	13.50	5.44	1.60
	38.39	31.25	66.89	-0.00	0.0603	10.47	460.6	396.08	0.0489	348.0	6.264	13.17	5.08	1.60
	39.38	31.25	66.87	0.00	0.0603	10.46	460.1	395.78	0.0488	347.8	6.260	13.16	5.07	1.60
	40.39	31.25	66.89	0.00	0.0603	10.47	460.8	396.19	0.0488	347.5	6.254	13.15	5.06	1.60
	41.37	31.25	66.89	0.00	0.0602	10.44	459.3	394.95	0.0509	363.9	6.550	13.77	5.72	1.60
	42.38	31.25	66.89	0.00	0.0601	10.44	459.2	394.87	0.0501	366.8	6.603	13.88	5.84	1.60
	43.46	31.24	66.87	0.00	0.0600	10.41	458.2	394.09	0.0502	363.7	6.547	13.77	5.72	1.60
	44.38	31.24	66.87	0.00	0.0601	10.42	458.7	394.52	0.0514	368.7	6.637	13.95	5.91	1.60
	45.40	31.27	66.87	-0.00	0.0598	10.37	456.5	392.66	0.0511	374.9	6.748	14.19	6.15	1.60
	46.40	31.25	66.87	-0.00	0.0599	10.36	455.8	392.07	0.0508	366.0	6.588	13.85	5.80	1.60
	47.45	31.25	66.89	0.00	0.0599	10.37	456.3	392.34	0.0517	369.9	6.658	13.99	5.96	1.60
	48.38	31.27	66.88	0.00	0.0598	10.37	456.3	392.51	0.0513	373.9	6.731	14.15	6.12	1.60
	49.39	31.26	66.87	0.00	0.0596	10.32	454.0	390.56	0.0503	362.7	6.529	13.73	5.68	1.60
	50.39	31.27	66.87	0.00	0.0599	10.36	455.7	392.03	0.0510	364.1	6.553	13.78	5.73	1.60
	51.37	31.27	66.87	0.00	0.0599	10.37	456.4	392.62	0.0521	381.6	6.869	14.44	6.41	1.60
	52.40	31.25	66.85	-0.00	0.0596	10.30	453.1	389.91	0.0555	418.5	7.533	15.85	7.76	1.60
	53.38	31.22	66.87	0.00	0.0596	10.31	453.4	390.00	0.0548	415.0	7.470	15.70	7.63	1.60
	54.38	31.25	66.87	-0.00	0.0592	10.27	452.0	388.83	0.0596	435.1	7.833	16.47	8.33	1.60
	55.38	31.25	66.89	0.00	0.0590	10.19	448.5	385.61	0.0595	455.1	8.192	17.22	8.99	1.60
	56.38	31.25	66.87	0.00	0.0587	10.08	443.5	381.46	0.0629	503.4	9.062	19.05	10.50	1.60
	57.44	31.23	66.84	0.00	0.0590	10.17	447.3	384.87	0.0611	480.8	8.654	18.20	9.81	1.60
	58.38	31.27	66.89	0.00	0.0587	10.14	446.0	383.54	0.0624	492.5	8.864	18.63	10.17	1.60
	59.37	31.25	66.87	0.00	0.0588	10.14	446.2	383.76	0.0617	488.3	8.790	18.48	10.04	1.60
	60.39	31.25	66.87	0.00	0.0589	10.15	446.8	384.28	0.0614	482.0	8.675	18.24	9.84	1.60
	61.39	31.25	66.89	0.00	0.0592	10.21	449.3	386.32	0.0596	466.3	8.393	17.64	9.35	1.60
	62.40	31.27	66.89	-0.00	0.0592	10.21	449.1	386.24	0.0593	455.5	8.199	17.23	9.01	1.60
	63.38	31.27	66.92	0.00	0.0593	10.23	450.0	386.82	0.0590	453.5	8.163	17.15	8.94	1.60
	64.40	31.24	66.87	-0.00	0.0592	10.22	449.6	386.71	0.0591	455.5	8.198	17.24	9.00	1.60
	65.38	31.24	66.87	-0.00	0.0591	10.18	447.9	385.25	0.0577	446.7	8.040	16.90	8.71	1.60
	66.39	31.25	66.89	-0.00	0.0591	10.21	449.2	386.21	0.0589	445.2	8.014	16.84	8.67	1.60
	67.38	31.25	66.89	0.00	0.0589	10.15	446.4	383.88	0.0603	471.2	8.482	17.83	9.51	1.60
	68.38	31.25	66.89	0.00	0.0589	10.18	447.9	385.17	0.0596	458.4	8.251	17.34	9.10	1.60
	69.37	31.25	66.89	0.00	0.0588	10.15	446.5	383.94	0.0603	464.8	8.366	17.58	9.30	1.60
	70.39	31.25	66.91	-0.00	0.0590	10.17	447.4	384.61	0.0596	461.5	8.308	17.46	9.20	1.60
	71.39	31.25	66.87	0.00	0.0587	10.12	445.3	383.03	0.0610	472.7	8.509	17.89	9.56	1.60
	72.38	31.27	66.89	-0.00	0.0586	10.07	443.1	381.01	0.0620	488.5	8.794	18.48	10.05	1.60
	73.37	31.24	66.89	0.00	0.0585	10.10	444.4	382.14	0.0619	477.1	8.588	18.05	9.69	1.60
	74.40	31.27	66.87	-0.00	0.0586	10.09	443.8	381.78	0.0615	482.8	8.691	18.27	9.87	1.60
	75.38	31.25	66.87	0.00	0.0585	10.08	443.6	381.60	0.0621	486.8	8.762	18.42	9.99	1.60
	76.38	31.19	66.87	0.00	0.0582	10.00	440.0	378.42	0.0642	514.2	9.255	19.46	10.81	1.60
	77.39	31.25	66.89	0.00	0.0583	10.03	441.5	379.64	0.0644	510.5	9.189	19.31	10.71	1.60
	78.39	31.25	66.89	-0.00	0.0582	10.01	440.3	378.65	0.0640	508.6	9.155	19.24	10.65	1.60
	79.37	31.27	66.87	0.00	0.0582	10.03	441.5	379.74	0.0638	507.3	9.132	19.20	10.61	1.60
	80.39	31.27	66.87	0.00	0.0583	10.02	441.1	379.40	0.0633	506.2	9.112	19.16	10.58	1.60
	81.46	31.25	66.87	0.00	0.0582	10.00	440.1	378.57	0.0641	508.4	9.151	19.24	10.64	1.60
	82.37	31.27	66.87	0.00	0.0581	10.00	439.9	378.39	0.0651	521.8	9.392	19.75	11.04	1.60
	83.38	31.27	66.87	0.00	0.0581	9.98	439.1	377.76	0.0636	506.8	9.123	19.18	10.60	1.60
	84.40	31.25	66.87	-0.00	0.0583	10.04	441.8	380.01	0.0633	498.0	8.965	18.85	10.33	1.60
	85.36	31.25	66.87	0.00	0.0582	9.99	439.6	378.13	0.0644	515.4	9.277	19.51	10.85	1.60
	86.36	31.25	66.87	0.00	0.0579	9.91	436.1	375.15	0.0657	533.2	9.598	20.18	11.36	1.60
	87.41	31.27	66.89	-0.00	0.0578	9.93	436.8	375.61	0.0642	508.4	9.151	19.24	10.64	1.60
	88.39	31.25	66.89	0.00	0.0578	9.94	437.5	376.16	0.0649	513.5	9.242	19.43	10.79	1.60
	89.39	31.25	66.87	-0.00	0.0576	9.90	435.6	374.66	0.0681	541.9	9.755	20.51	11.61	1.60
	90.39	31.27	66.87	0.00	0.0573	9.79	431.0	370.73	0.0699	579.8	10.437	21.95	12.63	1.60
	91.39	31.25	66.87	-0.00	0.0574	9.80	431.3	371.01	0.0701	587.6	10.577	22.24	12.84	1.60
	92.38	31.27	66.89	-0.00	0.0577	9.91	436.0	374.90	0.0683	560.1	10.081	21.19	12.11	1.60
	93.38	31.23	66.89	0.00	0.0578	9.94	437.3	375.96	0.0664	541.4	9.746	20.48	11.59	1.60
	94.38	31.29	66.87	0.00	0.0578	9.92	436.6	375.62	0.0669	546.3	9.833	20.68	11.73	1.60
	95.38	31.27	66.85	0.00	0.0578	9.93	437.1	376.09	0.0666	539.3	9.708	20.42	11.53	1.60
	96.36	31.25	66.87	0.00	0.0577	9.88	434.8	373.96	0.0674	550.4	9.908	20.83	11.84	1.60
	97.39	31.25	66.87	-0.00	0.0575	9.87	434.3	373.55	0.0669	542.8	9.770	20.54	11.63	1.60
	98.39	31.25	66.89	0.00	0.0576	9.87	434.4	373.56	0.0667	542.3	9.761	20.52	11.62	1.60
	99.37	31.24	66.85	0.00	0.0576	9.88	434.8	374.08	0.0661	536.9	9.664	20.33	11.47	1.60
	100.39	31.27	66.89	0.00	0.0577	9.89	435.4	374.40	0.0672	549.7	9.895	20.80	11.82	1.60
	101.39	31.27	66.87	0.00	0.0577	9.89	435.4	374.50	0.0673	549.9	9.897	20.81	11.83	1.60
	102.38	31.29	66.92	-0.00	0.0576	9.89	435.0	373.95	0.0680	555.6	10.000	21.01	11.99	1.60
	103.40	31.27	66.87	0.00	0.0576	9.88	434.6	373.81	0.0675	556.3	10.013	21.05	12.00	1.60
	104.40	31.23	66.89	-0.00	0.0576	9.85	433.5	372.76	0.0685	563.4	10.142	21.32	12.20	1.60
	105.46	31.25	66.89	-0.00	0.0574	9.81	431.5	371.03	0.0689	575.7	10.362	21.78	12.52	1.60
	106.38	31.27	66.86	0.00	0.0575	9.84	433.0	372.50	0.0687	562.7	10.128	21.30	12.18	1.60
	107.38	31.24	66.91	0.00	0.0574	9.82	432.2	371.52	0.0686	567.2	10.210	21.45	12.30	1.60
	108.37	31.27	66.88	0.00	0.0574	9.82	432.0	371.60	0.0687	569.5	10.251	21.55	12.36	1.60
	109.37	31.25	66.89	0.00	0.0572	9.78	430.5	370.15	0.0698	580.0	10.439	21.94	12.64	1.60
	110.37	31.27	66.87	0.00	0.0573	9.80	431.3	371.03	0.0692	573.7	10.326	21.71	12.47	1.60
	111.40	31.25	66.87	-0.00	0.0571	9.76	429.3	369.27	0.0703	587.3	10.572	22.23	12.83	1.60
	112.38	31.27	66.87	0.00	0.0572	9.76	429.5	369.48	0.0699	584.2	10.516	22.11	12.75	1.60
	113.38	31.27	66.87	0.00	0.0570	9.74	428.7	368.82	0.0708	587.1	10.567	22.22	12.82	1.60
	114.38	31.25	66.87	0.00	0.0571	9.76	429.5	369.41	0.0713	596.5	10.737	22.57	13.07	1.60
	115.46	31.27	66.87	-0.00	0.0571	9.77	430.0	369.88	0.0708	594.9	10.708	22.52	13.03	1.60
	116.39	31.32	66.88	-0.00	0.0570	9.75	429.0	369.08	0.0707	587.1	10.569	22.22	12.83	1.60
	117.39	31.33	66.89	-0.00	0.0570	9.76	429.6	369.49	0.0704	591.6	10.650	22.39	12.94	1.60
	118.39	31.29	66.87	-0.00	0.0573	9.80	431.1	370.86	0.0705	586.9	10.564	22.22	12.82	1.60
	119.39	31.33	66.89	-0.00	0.0572	9.77	429.9	369.78	0.0704	589.3	10.607	22.30	12.88	1.60
	120.37	31.31	66.89	0.00	0.0572	9.78	430.4	370.20	0.0702	583.6	10.504	22.08	12.73	1.60
	121.40	31.33	66.89	0.00	0.0570	9.76	429.5	369.39	0.0698	580.1	10.442	21.95	12.64	1.60
