Jul 28 2015 at 14:25:11
Frequency: 1.00Hz.
CO2
Zero:  Value:0.95  Date:18 Mar 2005	 at 07:22:33	
Span:  Value:1.00  Date:18 Mar 2005	 at 07:25:09	
H2O
Zero:  Value:0.71  Date:18 Mar 2005	 at 07:52:31	
Span:  Value:0.99  Date:18 Mar 2005	 at 11:44:01	
	Relative Time	Temperature	Pressure	Aux Input	CO2 Absorptance	CO2 mmol/m3	CO2 mg/m3	CO2 umol/mol	H2O Absorptance	H2O mmol/m3	H2O g/m3	H2O mmol/mol	H2O(°C)	Cooler Voltage
	0.84	32.56	67.76	0.00	0.0619	10.76	473.6	403.80	0.0469	328.6	5.915	12.33	4.32	1.62
	1.86	32.54	67.70	-0.00	0.0618	10.74	472.5	403.15	0.0461	320.0	5.759	12.01	3.94	1.62
	2.85	32.57	67.70	0.00	0.0618	10.77	474.1	404.50	0.0462	321.2	5.781	12.06	3.99	1.62
	3.85	32.56	67.70	0.00	0.0619	10.78	474.3	404.68	0.0461	320.9	5.776	12.05	3.98	1.62
	4.91	32.56	67.70	0.00	0.0621	10.81	475.6	405.79	0.0466	323.9	5.831	12.16	4.12	1.62
	5.87	32.60	67.75	-0.00	0.0621	10.84	477.1	406.85	0.0468	328.1	5.905	12.31	4.30	1.62
	6.93	32.56	67.70	0.00	0.0624	10.89	479.3	408.94	0.0475	332.6	5.987	12.49	4.49	1.62
	7.86	32.56	67.68	0.00	0.0630	11.04	485.9	414.71	0.0488	349.3	6.288	13.12	5.20	1.62
	8.86	32.61	67.73	0.00	0.0633	11.10	488.4	416.65	0.0499	356.3	6.414	13.37	5.48	1.62
	9.88	32.61	67.75	-0.00	0.0641	11.26	495.4	422.46	0.0514	368.6	6.634	13.83	5.97	1.62
	10.86	32.56	67.73	0.00	0.0639	11.20	492.9	420.35	0.0513	364.8	6.566	13.69	5.82	1.62
	11.86	32.56	67.70	-0.00	0.0635	11.15	490.7	418.69	0.0503	365.0	6.571	13.70	5.83	1.62
	12.93	32.59	67.75	-0.00	0.0637	11.19	492.2	419.69	0.0517	370.0	6.660	13.88	6.03	1.62
	13.85	32.57	67.75	-0.00	0.0634	11.12	489.4	417.25	0.0512	371.5	6.688	13.94	6.09	1.62
	14.85	32.56	67.70	0.00	0.0630	11.05	486.0	414.67	0.0506	365.5	6.579	13.72	5.85	1.62
	15.83	32.54	67.75	0.00	0.0628	11.09	487.9	415.98	0.0500	360.6	6.490	13.53	5.65	1.62
	16.86	32.54	67.73	0.00	0.0627	10.94	481.3	410.43	0.0496	357.1	6.428	13.40	5.51	1.62
	17.86	32.58	67.72	-0.00	0.0626	10.95	482.0	411.13	0.0495	355.8	6.405	13.35	5.46	1.62
	18.86	32.54	67.75	-0.00	0.0625	10.93	480.8	409.89	0.0518	374.9	6.749	14.06	6.22	1.62
	19.86	32.59	67.72	-0.00	0.0627	10.94	481.3	410.53	0.0514	372.9	6.712	13.99	6.14	1.62
	20.87	32.56	67.70	0.00	0.0625	10.92	480.6	410.10	0.0518	373.2	6.717	14.01	6.15	1.62
	21.86	32.56	67.73	0.00	0.0626	10.93	481.0	410.28	0.0523	383.5	6.903	14.39	6.54	1.62
	22.87	32.58	67.73	0.00	0.0629	10.98	483.1	412.09	0.0517	375.9	6.766	14.11	6.25	1.62
	23.85	32.59	67.73	0.00	0.0625	10.93	480.8	410.13	0.0529	386.3	6.953	14.50	6.65	1.62
	24.85	32.54	67.73	0.00	0.0624	10.89	479.3	408.74	0.0528	387.7	6.978	14.55	6.70	1.62
	25.94	32.54	67.76	-0.00	0.0624	10.92	480.4	409.56	0.0517	374.5	6.740	14.05	6.20	1.62
	26.86	32.56	67.70	-0.00	0.0625	10.91	480.0	409.54	0.0518	376.2	6.771	14.12	6.27	1.62
	27.86	32.57	67.70	0.00	0.0626	10.92	480.6	410.07	0.0512	375.7	6.763	14.11	6.25	1.62
	28.86	32.56	67.73	-0.00	0.0626	10.92	480.5	409.83	0.0518	380.6	6.852	14.28	6.44	1.62
	29.94	32.59	67.70	-0.00	0.0622	10.90	479.4	409.10	0.0533	385.2	6.933	14.46	6.61	1.62
	30.84	32.56	67.72	0.00	0.0622	10.85	477.5	407.28	0.0532	391.9	7.054	14.71	6.86	1.62
	31.87	32.58	67.73	0.00	0.0620	10.83	476.4	406.33	0.0548	407.7	7.339	15.30	7.44	1.62
	32.85	32.58	67.72	0.00	0.0621	10.82	476.1	406.08	0.0538	399.6	7.193	15.00	7.14	1.62
	33.87	32.59	67.75	0.00	0.0620	10.81	475.8	405.74	0.0546	404.5	7.280	15.18	7.32	1.62
	34.85	32.56	67.73	0.00	0.0619	10.81	475.6	405.67	0.0543	402.8	7.250	15.11	7.26	1.62
	35.86	32.59	67.70	0.00	0.0620	10.81	475.7	405.96	0.0545	403.3	7.259	15.14	7.28	1.62
	36.85	32.54	67.73	0.00	0.0620	10.80	475.4	405.43	0.0548	406.1	7.310	15.24	7.38	1.62
	37.88	32.56	67.73	-0.00	0.0620	10.82	476.1	406.03	0.0555	415.5	7.480	15.59	7.72	1.62
	38.92	32.56	67.70	0.00	0.0618	10.79	474.8	405.14	0.0556	417.4	7.513	15.67	7.78	1.62
	39.86	32.56	67.70	0.00	0.0619	10.78	474.4	404.78	0.0558	414.7	7.464	15.57	7.68	1.62
	40.86	32.56	67.75	-0.00	0.0619	10.76	473.6	403.81	0.0554	415.9	7.486	15.60	7.73	1.62
	41.85	32.56	67.73	0.00	0.0619	10.79	474.7	404.85	0.0562	423.8	7.628	15.90	8.00	1.62
	42.85	32.56	67.75	0.00	0.0620	10.78	474.5	404.56	0.0559	421.9	7.594	15.83	7.94	1.62
	43.87	32.56	67.70	0.00	0.0619	10.78	474.3	404.68	0.0565	422.9	7.613	15.88	7.97	1.62
	44.93	32.61	67.75	-0.00	0.0619	10.79	474.6	404.70	0.0568	427.8	7.700	16.05	8.14	1.62
	45.85	32.58	67.72	0.00	0.0618	10.76	473.6	404.01	0.0562	419.7	7.555	15.75	7.86	1.62
	46.94	32.56	67.70	-0.00	0.0618	10.77	473.8	404.24	0.0566	425.3	7.655	15.97	8.06	1.62
	47.86	32.60	67.70	0.00	0.0617	10.75	473.0	403.65	0.0571	437.3	7.871	16.42	8.47	1.62
	48.86	32.57	67.72	0.00	0.0617	10.75	472.9	403.41	0.0571	428.7	7.717	16.09	8.17	1.62
	49.87	32.52	67.68	-0.00	0.0618	10.76	473.5	404.09	0.0570	429.8	7.736	16.14	8.21	1.62
	50.86	32.52	67.70	0.00	0.0617	10.75	472.8	403.37	0.0558	417.1	7.507	15.66	7.77	1.62
	51.87	32.57	67.75	-0.00	0.0618	10.76	473.5	403.69	0.0566	425.1	7.651	15.95	8.05	1.62
	52.85	32.55	67.72	0.00	0.0618	10.76	473.3	403.70	0.0562	421.6	7.588	15.82	7.93	1.62
	53.87	32.50	67.73	-0.00	0.0617	10.75	473.0	403.35	0.0564	425.4	7.656	15.96	8.06	1.62
	54.85	32.53	67.70	0.00	0.0617	10.74	472.5	403.06	0.0567	424.1	7.633	15.92	8.01	1.62
	55.93	32.50	67.73	0.00	0.0617	10.73	472.3	402.75	0.0567	427.5	7.695	16.04	8.13	1.62
	56.86	32.51	67.73	-0.00	0.0619	10.78	474.4	404.58	0.0558	416.6	7.499	15.63	7.75	1.62
	57.86	32.52	67.70	-0.00	0.0618	10.76	473.6	404.04	0.0559	419.0	7.543	15.73	7.84	1.62
	58.86	32.55	67.70	0.00	0.0618	10.77	473.8	404.24	0.0557	418.1	7.526	15.70	7.81	1.62
	59.86	32.52	67.73	0.00	0.0618	10.77	473.9	404.13	0.0558	417.1	7.508	15.65	7.77	1.62
	60.84	32.56	67.70	0.00	0.0619	10.79	474.6	404.97	0.0554	414.5	7.460	15.56	7.68	1.62
	61.93	32.54	67.70	-0.00	0.0618	10.76	473.5	403.94	0.0555	413.3	7.440	15.52	7.64	1.62
	62.85	32.54	67.75	0.00	0.0618	10.76	473.3	403.55	0.0556	415.7	7.483	15.60	7.72	1.62
	63.95	32.59	67.70	-0.00	0.0616	10.73	472.0	402.76	0.0559	418.0	7.523	15.69	7.80	1.62
	64.85	32.54	67.70	0.00	0.0619	10.76	473.4	403.88	0.0555	416.6	7.499	15.64	7.75	1.62
	65.86	32.54	67.73	0.00	0.0618	10.77	474.0	404.24	0.0559	416.4	7.495	15.63	7.74	1.62
	66.86	32.54	67.75	-0.00	0.0616	10.73	472.0	402.41	0.0562	421.9	7.594	15.83	7.94	1.62
	67.86	32.54	67.70	0.00	0.0617	10.72	471.5	402.27	0.0560	419.7	7.555	15.76	7.86	1.62
	68.84	32.51	67.73	0.00	0.0617	10.75	473.0	403.36	0.0560	418.5	7.532	15.70	7.82	1.62
	69.87	32.54	67.70	-0.00	0.0616	10.73	472.2	402.89	0.0560	419.0	7.542	15.73	7.84	1.62
	70.84	32.54	67.73	0.00	0.0617	10.73	472.1	402.63	0.0559	419.0	7.542	15.72	7.84	1.62
	71.85	32.56	67.70	0.00	0.0617	10.74	472.6	403.25	0.0559	418.0	7.524	15.69	7.80	1.62
	72.85	32.54	67.73	0.00	0.0617	10.73	472.3	402.79	0.0559	419.4	7.549	15.74	7.85	1.62
	73.85	32.54	67.73	0.00	0.0617	10.73	472.1	402.60	0.0560	420.2	7.564	15.77	7.88	1.62
	74.85	32.54	67.72	0.00	0.0616	10.72	471.7	402.33	0.0563	422.6	7.607	15.86	7.96	1.62
	75.85	32.58	67.73	0.00	0.0615	10.69	470.4	401.27	0.0567	426.8	7.682	16.02	8.11	1.62
	76.85	32.61	67.75	-0.00	0.0615	10.69	470.3	401.10	0.0569	430.3	7.745	16.15	8.23	1.62
	77.88	32.61	67.70	-0.00	0.0615	10.70	470.6	401.60	0.0574	433.3	7.800	16.27	8.33	1.62
	78.86	32.56	67.73	0.00	0.0615	10.69	470.2	401.03	0.0577	437.7	7.878	16.43	8.48	1.62
	79.87	32.62	67.73	-0.00	0.0615	10.69	470.4	401.27	0.0579	438.2	7.888	16.45	8.50	1.62
	80.95	32.56	67.72	-0.00	0.0616	10.70	470.7	401.48	0.0580	439.4	7.909	16.49	8.54	1.62
	81.85	32.61	67.73	0.00	0.0614	10.67	469.6	400.60	0.0584	444.1	7.993	16.67	8.69	1.62
	82.88	32.58	67.73	-0.00	0.0615	10.70	470.6	401.42	0.0584	444.6	8.003	16.69	8.71	1.62
	83.87	32.58	67.72	0.00	0.0614	10.70	470.8	401.59	0.0588	444.0	7.991	16.66	8.69	1.62
	84.85	32.61	67.75	0.00	0.0614	10.68	469.8	400.66	0.0588	450.4	8.108	16.90	8.91	1.62
	85.86	32.60	67.75	-0.00	0.0615	10.68	470.0	400.79	0.0585	446.9	8.043	16.77	8.79	1.62
	86.86	32.60	67.73	0.00	0.0614	10.68	470.0	400.92	0.0592	449.8	8.097	16.88	8.89	1.62
	87.86	32.65	67.73	-0.00	0.0614	10.68	469.8	400.79	0.0594	457.4	8.233	17.17	9.13	1.62
	88.87	32.60	67.73	-0.00	0.0615	10.71	471.1	401.81	0.0599	462.7	8.329	17.37	9.30	1.62
	89.86	32.60	67.75	0.00	0.0614	10.70	470.6	401.28	0.0601	461.7	8.310	17.32	9.27	1.62
	90.86	32.62	67.73	0.00	0.0614	10.68	469.9	400.85	0.0597	458.4	8.252	17.21	9.17	1.62
	91.85	32.58	67.77	-0.00	0.0615	10.69	470.3	400.90	0.0593	456.6	8.219	17.12	9.11	1.62
	92.84	32.60	67.73	0.00	0.0615	10.69	470.4	401.26	0.0590	452.1	8.137	16.97	8.96	1.62
	93.87	32.58	67.73	0.00	0.0615	10.68	469.9	400.78	0.0588	448.4	8.071	16.83	8.84	1.62
	94.85	32.59	67.77	0.00	0.0615	10.69	470.4	401.00	0.0588	449.9	8.099	16.88	8.89	1.63
	95.86	32.59	67.70	0.00	0.0615	10.69	470.2	401.23	0.0593	455.2	8.194	17.09	9.06	1.62
	96.84	32.54	67.73	0.00	0.0614	10.68	470.0	400.87	0.0589	450.3	8.105	16.90	8.90	1.62
	97.94	32.54	67.75	-0.00	0.0615	10.69	470.2	400.86	0.0592	454.2	8.176	17.04	9.03	1.62
	98.84	32.52	67.70	0.00	0.0615	10.69	470.4	401.35	0.0592	454.3	8.177	17.05	9.03	1.62
	99.86	32.58	67.73	0.00	0.0615	10.68	470.1	400.95	0.0591	452.9	8.152	17.00	8.98	1.62
	100.85	32.54	67.73	-0.00	0.0615	10.70	470.7	401.41	0.0588	450.3	8.106	16.90	8.90	1.62
	101.85	32.54	67.73	0.00	0.0616	10.72	471.8	402.36	0.0588	450.4	8.108	16.90	8.90	1.62
	102.85	32.56	67.75	-0.00	0.0615	10.70	470.9	401.49	0.0588	450.0	8.101	16.88	8.89	1.62
	103.88	32.56	67.75	-0.00	0.0615	10.69	470.3	401.01	0.0589	449.8	8.096	16.87	8.88	1.62
	104.86	32.56	67.76	-0.00	0.0615	10.70	470.7	401.34	0.0589	450.0	8.100	16.88	8.89	1.62
	105.88	32.61	67.75	-0.00	0.0614	10.70	470.9	401.55	0.0588	449.4	8.089	16.86	8.87	1.62
	106.86	32.61	67.73	-0.00	0.0615	10.69	470.4	401.27	0.0588	449.7	8.094	16.88	8.88	1.62
	107.88	32.60	67.73	-0.00	0.0615	10.69	470.2	401.08	0.0588	449.3	8.088	16.87	8.87	1.62
	108.86	32.58	67.77	-0.00	0.0615	10.69	470.5	401.04	0.0590	451.2	8.121	16.92	8.93	1.62
	109.86	32.60	67.73	0.00	0.0615	10.69	470.4	401.21	0.0592	452.1	8.138	16.97	8.96	1.62
	110.85	32.60	67.75	0.00	0.0614	10.68	470.0	400.81	0.0591	451.5	8.128	16.94	8.94	1.62
	111.85	32.63	67.73	0.00	0.0614	10.69	470.2	401.15	0.0592	452.7	8.149	16.99	8.98	1.63
	112.85	32.61	67.75	0.00	0.0614	10.68	469.7	400.54	0.0592	454.2	8.176	17.04	9.03	1.62
	113.86	32.60	67.75	-0.00	0.0615	10.68	469.9	400.67	0.0592	453.4	8.162	17.01	9.00	1.62
	114.85	32.61	67.72	0.00	0.0613	10.66	469.2	400.29	0.0595	457.0	8.226	17.15	9.12	1.62
	115.85	32.63	67.75	0.00	0.0613	10.64	468.3	399.36	0.0593	454.8	8.187	17.07	9.05	1.62
	116.84	32.60	67.76	0.00	0.0613	10.66	468.9	399.78	0.0594	456.0	8.208	17.11	9.09	1.62
	117.86	32.63	67.75	-0.00	0.0612	10.64	468.3	399.33	0.0596	458.4	8.251	17.20	9.17	1.63
	118.87	32.63	67.77	-0.00	0.0613	10.64	468.3	399.24	0.0595	457.7	8.239	17.17	9.14	1.63
	119.86	32.62	67.73	0.00	0.0613	10.66	469.0	400.09	0.0596	457.5	8.235	17.17	9.14	1.62
	120.85	32.63	67.75	0.00	0.0614	10.67	469.5	400.42	0.0595	456.2	8.212	17.12	9.10	1.62
	121.87	32.60	67.73	-0.00	0.0613	10.66	469.0	400.08	0.0593	456.2	8.212	17.12	9.09	1.63
	122.85	32.66	67.73	0.00	0.0613	10.65	468.8	399.95	0.0594	456.1	8.210	17.12	9.09	1.63
	123.86	32.58	67.73	0.00	0.0613	10.65	468.6	399.73	0.0593	455.8	8.205	17.11	9.08	1.63
