Jul 28 2015 at 11:09:06
Frequency: 1.00Hz.
CO2
Zero:  Value:0.95  Date:18 Mar 2005	 at 07:22:33	
Span:  Value:1.00  Date:18 Mar 2005	 at 07:25:09	
H2O
Zero:  Value:0.71  Date:18 Mar 2005	 at 07:52:31	
Span:  Value:0.99  Date:18 Mar 2005	 at 11:44:01	
	Relative Time	Temperature	Pressure	Aux Input	CO2 Absorptance	CO2 mmol/m3	CO2 mg/m3	CO2 umol/mol	H2O Absorptance	H2O mmol/m3	H2O g/m3	H2O mmol/mol	H2O(°C)	Cooler Voltage
	0.81	28.79	67.68	0.00	0.0623	10.87	478.5	403.34	0.0401	266.3	4.794	9.88	1.19	1.59
	1.82	28.81	67.65	-0.00	0.0621	10.87	478.2	403.33	0.0396	263.1	4.736	9.76	1.02	1.58
	2.81	28.81	67.62	-0.00	0.0622	10.82	476.2	401.79	0.0397	259.6	4.672	9.64	0.83	1.59
	3.81	28.83	67.65	0.00	0.0621	10.82	476.2	401.66	0.0392	260.0	4.680	9.65	0.85	1.59
	4.80	28.83	67.65	0.00	0.0618	10.80	475.0	400.69	0.0389	256.2	4.611	9.51	0.65	1.58
	5.82	28.81	67.65	-0.00	0.0621	10.82	476.0	401.43	0.0391	257.4	4.634	9.55	0.72	1.58
	6.80	28.79	67.67	-0.00	0.0620	10.78	474.1	399.74	0.0392	256.5	4.617	9.52	0.67	1.58
	7.82	28.77	67.67	-0.00	0.0618	10.79	474.8	400.24	0.0391	258.2	4.647	9.58	0.75	1.58
	8.80	28.76	67.65	0.00	0.0619	10.78	474.2	399.91	0.0392	257.7	4.638	9.56	0.73	1.59
	9.81	28.78	67.68	-0.00	0.0616	10.76	473.6	399.19	0.0392	258.9	4.661	9.60	0.79	1.59
	10.81	28.71	67.65	-0.00	0.0620	10.78	474.2	399.82	0.0398	262.5	4.725	9.74	0.98	1.58
	11.89	28.74	67.65	0.00	0.0618	10.78	474.1	399.79	0.0399	263.3	4.739	9.77	1.02	1.58
	12.82	28.69	67.65	-0.00	0.0617	10.78	474.2	399.77	0.0399	264.9	4.769	9.83	1.11	1.58
	13.82	28.71	67.65	0.00	0.0619	10.76	473.6	399.29	0.0402	266.8	4.802	9.90	1.21	1.58
	14.80	28.72	67.65	0.00	0.0617	10.77	474.1	399.70	0.0406	272.0	4.896	10.09	1.48	1.59
	15.82	28.71	67.67	0.00	0.0616	10.74	472.8	398.48	0.0406	274.4	4.940	10.18	1.60	1.58
	16.80	28.72	67.65	0.00	0.0616	10.74	472.6	398.48	0.0404	272.0	4.897	10.09	1.48	1.58
	17.82	28.74	67.65	-0.00	0.0618	10.73	472.2	398.20	0.0400	264.7	4.765	9.82	1.10	1.58
	18.81	28.71	67.68	-0.00	0.0616	10.73	472.2	397.98	0.0399	264.5	4.760	9.81	1.08	1.58
	19.81	28.71	67.66	-0.00	0.0616	10.71	471.3	397.35	0.0401	264.1	4.754	9.80	1.07	1.58
	20.81	28.72	67.65	-0.00	0.0616	10.72	471.8	397.80	0.0402	266.3	4.794	9.88	1.18	1.59
	21.82	28.69	67.65	0.00	0.0616	10.73	472.2	398.11	0.0403	268.9	4.840	9.97	1.31	1.58
	22.81	28.72	67.68	-0.00	0.0618	10.76	473.5	399.09	0.0403	267.3	4.812	9.91	1.23	1.58
	23.80	28.72	67.65	0.00	0.0617	10.73	472.0	397.91	0.0407	269.9	4.858	10.01	1.37	1.58
	24.82	28.71	67.65	-0.00	0.0615	10.73	471.9	397.90	0.0404	268.0	4.823	9.94	1.27	1.58
	25.80	28.74	67.62	0.00	0.0615	10.73	472.0	398.17	0.0405	270.2	4.863	10.03	1.38	1.58
	26.82	28.74	67.67	-0.00	0.0617	10.72	471.5	397.44	0.0417	278.1	5.005	10.31	1.78	1.58
	27.88	28.74	67.65	0.00	0.0616	10.73	472.2	398.17	0.0434	291.6	5.249	10.82	2.45	1.58
	28.81	28.71	67.65	0.00	0.0618	10.76	473.6	399.33	0.0438	299.8	5.396	11.12	2.84	1.58
	29.81	28.72	67.62	-0.00	0.0616	10.73	472.1	398.25	0.0436	293.6	5.285	10.90	2.55	1.58
	30.82	28.74	67.67	-0.00	0.0619	10.74	472.5	398.32	0.0451	305.8	5.504	11.34	3.12	1.58
	31.89	28.70	67.65	-0.00	0.0616	10.76	473.4	399.14	0.0446	311.4	5.605	11.55	3.37	1.58
	32.81	28.72	67.65	0.00	0.0619	10.75	473.0	398.80	0.0447	307.9	5.543	11.42	3.22	1.58
	33.80	28.69	67.65	0.00	0.0617	10.76	473.4	399.09	0.0449	310.3	5.586	11.51	3.33	1.58
	34.79	28.72	67.65	0.00	0.0618	10.74	472.5	398.34	0.0456	313.7	5.646	11.64	3.48	1.58
	35.82	28.70	67.65	-0.00	0.0618	10.73	472.2	398.12	0.0449	307.0	5.527	11.39	3.18	1.58
	36.80	28.69	67.65	0.00	0.0616	10.74	472.8	398.59	0.0446	307.1	5.528	11.39	3.18	1.58
	37.81	28.72	67.65	-0.00	0.0618	10.74	472.4	398.31	0.0447	307.3	5.532	11.40	3.19	1.58
	38.80	28.69	67.65	0.00	0.0616	10.73	472.1	398.05	0.0448	308.3	5.549	11.44	3.23	1.58
	39.80	28.70	67.65	0.00	0.0615	10.72	471.5	397.55	0.0449	309.1	5.564	11.47	3.27	1.58
	40.79	28.70	67.65	0.00	0.0619	10.77	473.9	399.53	0.0454	314.8	5.667	11.68	3.53	1.58
	41.79	28.68	67.65	0.00	0.0616	10.76	473.5	399.19	0.0457	316.3	5.694	11.73	3.60	1.58
	42.82	28.68	67.67	0.00	0.0616	10.72	471.6	397.46	0.0455	315.6	5.681	11.70	3.56	1.58
	43.82	28.68	67.65	0.00	0.0617	10.72	471.6	397.53	0.0456	316.1	5.690	11.73	3.59	1.58
	44.80	28.68	67.65	0.00	0.0614	10.70	471.0	397.05	0.0449	311.1	5.599	11.54	3.36	1.58
	45.82	28.70	67.66	0.00	0.0616	10.72	471.9	397.82	0.0453	311.3	5.603	11.55	3.37	1.58
	46.80	28.68	67.65	0.00	0.0617	10.72	471.7	397.64	0.0454	313.5	5.644	11.63	3.47	1.58
	47.83	28.70	67.67	-0.00	0.0614	10.72	471.5	397.38	0.0456	317.6	5.717	11.78	3.65	1.58
	48.81	28.68	67.67	-0.00	0.0615	10.70	470.9	396.84	0.0452	313.1	5.636	11.61	3.45	1.58
	49.81	28.68	67.68	-0.00	0.0616	10.70	470.7	396.66	0.0451	312.0	5.616	11.57	3.40	1.58
	50.81	28.68	67.65	-0.00	0.0616	10.72	471.5	397.48	0.0456	314.7	5.665	11.68	3.53	1.58
	51.81	28.70	67.63	0.00	0.0615	10.72	471.6	397.72	0.0456	315.3	5.676	11.70	3.55	1.58
	52.81	28.70	67.68	0.00	0.0613	10.68	469.7	395.86	0.0451	312.1	5.617	11.57	3.41	1.58
	53.80	28.70	67.65	0.00	0.0616	10.71	471.2	397.28	0.0455	314.3	5.657	11.66	3.51	1.58
	54.80	28.72	67.65	0.00	0.0615	10.73	471.9	397.88	0.0457	317.7	5.719	11.79	3.66	1.59
	55.80	28.68	67.65	0.00	0.0617	10.72	471.8	397.77	0.0460	319.2	5.746	11.84	3.73	1.58
	56.81	28.72	67.65	-0.00	0.0615	10.74	472.4	398.35	0.0461	321.4	5.785	11.92	3.82	1.58
	57.80	28.72	67.67	0.00	0.0616	10.70	470.7	396.78	0.0460	318.9	5.740	11.83	3.71	1.58
	58.81	28.71	67.65	-0.00	0.0617	10.71	471.2	397.31	0.0458	318.1	5.727	11.80	3.68	1.58
	59.81	28.72	67.68	0.00	0.0616	10.70	470.9	396.85	0.0459	318.9	5.740	11.83	3.71	1.58
	60.79	28.74	67.65	0.00	0.0614	10.70	471.0	397.10	0.0461	319.4	5.750	11.85	3.74	1.59
	61.81	28.74	67.68	-0.00	0.0617	10.71	471.4	397.34	0.0462	323.4	5.822	11.99	3.91	1.59
	62.79	28.74	67.65	0.00	0.0615	10.73	472.1	398.09	0.0465	324.9	5.848	12.05	3.98	1.58
	63.80	28.76	67.65	0.00	0.0616	10.70	470.9	397.08	0.0460	321.1	5.779	11.91	3.81	1.58
	64.82	28.78	67.67	0.00	0.0616	10.70	470.9	397.01	0.0462	321.0	5.779	11.91	3.81	1.58
	65.80	28.80	67.65	0.00	0.0613	10.70	470.7	397.01	0.0462	321.2	5.782	11.92	3.82	1.58
	66.88	28.81	67.67	0.00	0.0615	10.70	470.6	396.80	0.0452	314.4	5.659	11.66	3.52	1.59
	67.83	28.75	67.65	-0.00	0.0617	10.71	471.3	397.40	0.0459	318.6	5.735	11.82	3.70	1.58
	68.81	28.78	67.63	0.00	0.0614	10.71	471.3	397.59	0.0459	318.7	5.737	11.83	3.71	1.58
	69.81	28.79	67.70	-0.00	0.0614	10.71	471.2	397.08	0.0460	320.5	5.770	11.89	3.79	1.58
	70.81	28.74	67.65	0.00	0.0616	10.70	470.6	396.85	0.0462	321.2	5.781	11.92	3.82	1.58
	71.79	28.74	67.67	0.00	0.0614	10.69	470.3	396.43	0.0463	322.5	5.805	11.96	3.87	1.58
	72.81	28.73	67.67	0.00	0.0613	10.70	470.7	396.74	0.0468	327.9	5.902	12.16	4.11	1.59
	73.80	28.74	67.65	-0.00	0.0614	10.71	471.1	397.24	0.0472	332.4	5.983	12.33	4.30	1.58
	74.82	28.74	67.63	-0.00	0.0614	10.70	470.6	396.98	0.0470	330.0	5.941	12.25	4.20	1.58
	75.82	28.73	67.67	-0.00	0.0616	10.69	470.2	396.31	0.0472	330.3	5.945	12.25	4.21	1.58
	76.80	28.73	67.65	0.00	0.0615	10.70	470.8	397.00	0.0473	331.9	5.975	12.31	4.28	1.58
	77.81	28.73	67.65	0.00	0.0614	10.70	470.9	397.05	0.0472	331.9	5.974	12.31	4.28	1.58
	78.80	28.73	67.65	0.00	0.0616	10.71	471.4	397.49	0.0473	333.5	6.002	12.37	4.35	1.59
	79.81	28.74	67.65	0.00	0.0616	10.72	471.6	397.63	0.0474	333.7	6.006	12.38	4.36	1.58
	80.79	28.74	67.65	0.00	0.0616	10.71	471.1	397.25	0.0474	332.9	5.992	12.35	4.33	1.58
	81.82	28.73	67.67	-0.00	0.0615	10.69	470.4	396.51	0.0475	332.8	5.991	12.34	4.32	1.58
	82.87	28.74	67.65	0.00	0.0614	10.71	471.1	397.23	0.0476	334.0	6.013	12.39	4.37	1.58
	83.79	28.72	67.67	0.00	0.0615	10.69	470.3	396.39	0.0476	335.0	6.030	12.42	4.42	1.58
	84.80	28.76	67.65	0.00	0.0616	10.69	470.5	396.77	0.0477	336.0	6.048	12.47	4.46	1.59
	85.82	28.74	67.68	-0.00	0.0616	10.70	470.8	396.84	0.0480	337.8	6.080	12.53	4.53	1.58
	86.81	28.74	67.68	0.00	0.0616	10.72	471.7	397.56	0.0479	338.3	6.090	12.55	4.56	1.58
	87.80	28.73	67.65	0.00	0.0614	10.71	471.4	397.45	0.0481	339.4	6.108	12.59	4.60	1.58
	88.83	28.73	67.65	-0.00	0.0615	10.71	471.4	397.51	0.0480	339.3	6.107	12.59	4.60	1.58
	89.81	28.75	67.65	-0.00	0.0614	10.70	470.9	397.08	0.0484	343.2	6.178	12.74	4.76	1.59
	90.81	28.76	67.65	0.00	0.0615	10.71	471.3	397.42	0.0485	345.0	6.209	12.80	4.84	1.59
	91.81	28.76	67.65	0.00	0.0616	10.71	471.2	397.30	0.0486	345.9	6.226	12.83	4.87	1.58
	92.81	28.78	67.67	-0.00	0.0616	10.71	471.1	397.16	0.0488	345.1	6.211	12.80	4.84	1.58
	93.80	28.78	67.67	0.00	0.0614	10.71	471.1	397.16	0.0489	347.5	6.254	12.89	4.94	1.58
	94.80	28.73	67.68	-0.00	0.0614	10.70	470.7	396.74	0.0486	345.2	6.214	12.80	4.84	1.58
	95.80	28.76	67.68	0.00	0.0617	10.70	470.9	396.95	0.0487	344.5	6.201	12.78	4.82	1.59
	96.80	28.75	67.65	0.00	0.0617	10.73	472.3	398.26	0.0491	349.9	6.299	12.98	5.04	1.58
	97.81	28.76	67.70	0.00	0.0615	10.73	472.0	397.76	0.0490	349.4	6.289	12.95	5.02	1.58
	98.81	28.76	67.67	-0.00	0.0617	10.72	471.6	397.54	0.0492	349.4	6.290	12.96	5.02	1.58
	99.83	28.81	67.65	-0.00	0.0618	10.77	473.8	399.59	0.0504	360.8	6.494	13.39	5.48	1.58
	100.81	28.78	67.65	-0.00	0.0616	10.76	473.4	399.24	0.0499	359.7	6.475	13.35	5.44	1.58
	101.81	28.78	67.65	0.00	0.0618	10.75	473.1	398.96	0.0499	357.7	6.439	13.27	5.36	1.59
	102.82	28.79	67.65	-0.00	0.0615	10.72	471.8	397.91	0.0502	359.7	6.474	13.35	5.44	1.58
	103.80	28.81	67.65	0.00	0.0617	10.77	474.0	399.77	0.0509	367.6	6.617	13.64	5.75	1.58
	104.82	28.81	67.65	-0.00	0.0617	10.72	471.5	397.71	0.0503	361.8	6.513	13.43	5.52	1.58
	105.88	28.81	67.65	0.00	0.0618	10.77	474.0	399.80	0.0512	369.3	6.648	13.71	5.82	1.59
	106.80	28.79	67.65	0.00	0.0616	10.73	472.0	398.10	0.0508	365.7	6.583	13.57	5.68	1.58
	107.81	28.81	67.65	0.00	0.0617	10.77	474.0	399.75	0.0505	367.4	6.613	13.63	5.74	1.59
	108.80	28.84	67.67	0.00	0.0618	10.73	472.0	398.01	0.0506	363.8	6.548	13.50	5.60	1.59
	109.79	28.81	67.65	0.00	0.0614	10.73	472.2	398.28	0.0506	366.3	6.594	13.59	5.70	1.58
	110.81	28.79	67.65	-0.00	0.0616	10.74	472.7	398.66	0.0507	365.8	6.584	13.57	5.68	1.58
	111.79	28.82	67.67	0.00	0.0615	10.69	470.1	396.40	0.0504	361.8	6.513	13.42	5.53	1.59
	112.80	28.81	67.65	-0.00	0.0616	10.70	470.8	397.11	0.0501	362.3	6.521	13.44	5.54	1.59
	113.80	28.78	67.65	0.00	0.0615	10.73	472.3	398.29	0.0489	347.0	6.245	12.87	4.92	1.59
	114.82	28.78	67.67	0.00	0.0618	10.72	471.9	397.81	0.0490	346.6	6.239	12.86	4.91	1.59
	115.80	28.81	67.65	0.00	0.0617	10.74	472.7	398.63	0.0494	353.5	6.363	13.12	5.19	1.59
	116.89	28.81	67.67	-0.00	0.0616	10.72	471.9	397.84	0.0495	352.2	6.340	13.07	5.14	1.59
	117.81	28.83	67.67	-0.00	0.0618	10.72	471.9	397.86	0.0501	358.1	6.445	13.28	5.38	1.59
	118.79	28.83	67.65	0.00	0.0615	10.73	472.3	398.36	0.0501	359.1	6.464	13.33	5.42	1.59
	119.81	28.81	67.65	-0.00	0.0616	10.72	471.9	397.99	0.0498	358.3	6.450	13.30	5.38	1.59
