Jul 28 2015 at 15:55:33
Frequency: 1.00Hz.
CO2
Zero:  Value:0.95  Date:18 Mar 2005	 at 07:22:33	
Span:  Value:1.00  Date:18 Mar 2005	 at 07:25:09	
H2O
Zero:  Value:0.71  Date:18 Mar 2005	 at 07:52:31	
Span:  Value:0.99  Date:18 Mar 2005	 at 11:44:01	
	Relative Time	Temperature	Pressure	Aux Input	CO2 Absorptance	CO2 mmol/m3	CO2 mg/m3	CO2 umol/mol	H2O Absorptance	H2O mmol/m3	H2O g/m3	H2O mmol/mol	H2O(°C)	Cooler Voltage
	0.31	31.71	66.87	0.00	0.0614	10.69	470.5	405.36	0.0467	323.8	5.828	12.27	4.07	1.61
	1.29	31.79	66.92	0.00	0.0613	10.70	471.0	405.54	0.0464	327.8	5.900	12.42	4.25	1.61
	2.29	31.77	66.86	0.00	0.0612	10.67	469.5	404.54	0.0467	328.0	5.904	12.44	4.26	1.61
	3.31	31.77	66.89	-0.00	0.0612	10.66	468.9	403.92	0.0465	326.0	5.867	12.35	4.17	1.61
	4.30	31.77	66.89	-0.00	0.0612	10.66	469.0	403.94	0.0466	325.6	5.861	12.34	4.15	1.61
	5.30	31.74	66.87	-0.00	0.0610	10.64	468.3	403.46	0.0454	315.8	5.684	11.97	3.72	1.61
	6.29	31.77	66.90	0.00	0.0610	10.63	467.6	402.75	0.0456	316.9	5.704	12.01	3.77	1.61
	7.30	31.77	66.87	0.00	0.0610	10.63	467.7	403.01	0.0455	320.1	5.762	12.14	3.91	1.61
	8.30	31.75	66.87	-0.00	0.0611	10.64	468.2	403.42	0.0461	315.3	5.675	11.95	3.69	1.61
	9.30	31.77	66.87	-0.00	0.0609	10.63	467.6	402.92	0.0455	319.0	5.743	12.09	3.86	1.61
	10.31	31.75	66.89	-0.00	0.0607	10.57	465.1	400.56	0.0457	318.4	5.731	12.07	3.83	1.61
	11.29	31.75	66.87	-0.00	0.0607	10.55	464.3	400.04	0.0454	316.4	5.695	11.99	3.74	1.61
	12.31	31.75	66.89	-0.00	0.0606	10.55	464.3	399.87	0.0456	318.0	5.724	12.05	3.81	1.61
	13.34	31.75	66.89	-0.00	0.0607	10.56	464.7	400.25	0.0458	320.6	5.770	12.15	3.93	1.61
	14.30	31.78	66.89	0.00	0.0607	10.56	464.6	400.23	0.0458	317.2	5.710	12.02	3.78	1.61
	15.29	31.74	66.89	0.00	0.0607	10.54	463.8	399.44	0.0469	330.2	5.944	12.51	4.35	1.61
	16.30	31.75	66.89	0.00	0.0608	10.59	466.0	401.36	0.0468	327.3	5.891	12.40	4.23	1.61
	17.30	31.78	66.92	0.00	0.0610	10.62	467.1	402.15	0.0465	326.0	5.868	12.35	4.17	1.61
	18.28	31.82	66.87	0.00	0.0610	10.61	467.0	402.49	0.0466	326.1	5.870	12.36	4.18	1.61
	19.28	31.75	66.87	0.00	0.0610	10.61	466.7	402.14	0.0466	327.2	5.889	12.40	4.22	1.61
	20.31	31.74	66.90	0.00	0.0610	10.62	467.3	402.40	0.0470	330.5	5.949	12.52	4.36	1.61
	21.29	31.77	66.87	-0.00	0.0609	10.61	467.0	402.41	0.0478	338.0	6.084	12.81	4.69	1.61
	22.28	31.75	66.87	0.00	0.0611	10.63	467.6	402.85	0.0478	338.7	6.096	12.84	4.71	1.61
	23.31	31.76	66.91	-0.00	0.0609	10.61	466.9	402.00	0.0481	342.4	6.163	12.97	4.87	1.61
	24.30	31.80	66.87	0.00	0.0610	10.62	467.1	402.49	0.0484	343.9	6.190	13.04	4.93	1.61
	25.30	31.80	66.87	-0.00	0.0610	10.62	467.5	402.85	0.0485	345.3	6.216	13.09	4.99	1.61
	26.32	31.76	66.87	0.00	0.0608	10.57	465.2	400.84	0.0488	348.6	6.274	13.22	5.13	1.61
	27.30	31.76	66.89	0.00	0.0610	10.60	466.6	401.87	0.0497	355.9	6.406	13.49	5.42	1.61
	28.30	31.76	66.89	0.00	0.0610	10.61	466.9	402.17	0.0492	352.1	6.337	13.34	5.27	1.61
	29.31	31.79	66.87	-0.00	0.0609	10.62	467.1	402.50	0.0497	356.7	6.420	13.52	5.46	1.61
	30.30	31.82	66.89	0.00	0.0608	10.59	465.8	401.29	0.0498	359.5	6.470	13.63	5.57	1.61
	31.29	31.79	66.87	-0.00	0.0609	10.61	466.9	402.34	0.0502	364.0	6.552	13.80	5.75	1.61
	32.31	31.84	66.89	0.00	0.0609	10.61	466.9	402.26	0.0504	361.9	6.514	13.72	5.67	1.61
	33.29	31.78	66.85	0.00	0.0608	10.59	465.8	401.51	0.0496	360.3	6.485	13.66	5.60	1.61
	34.29	31.79	66.89	0.00	0.0609	10.61	466.8	402.11	0.0507	367.2	6.610	13.92	5.88	1.61
	35.37	31.82	66.89	0.00	0.0609	10.60	466.3	401.71	0.0504	365.3	6.575	13.84	5.80	1.61
	36.30	31.82	66.87	-0.00	0.0608	10.59	466.2	401.71	0.0503	360.5	6.489	13.67	5.61	1.61
	37.30	31.79	66.87	0.00	0.0609	10.60	466.4	401.87	0.0507	362.4	6.523	13.74	5.69	1.61
	38.30	31.78	66.87	0.00	0.0609	10.60	466.5	401.94	0.0497	357.6	6.437	13.56	5.50	1.61
	39.28	31.77	66.87	0.00	0.0609	10.60	466.4	401.83	0.0497	355.2	6.394	13.47	5.40	1.60
	40.30	31.77	66.87	0.00	0.0609	10.60	466.3	401.75	0.0503	360.9	6.496	13.68	5.63	1.60
	41.29	31.82	66.87	0.00	0.0608	10.59	466.1	401.68	0.0502	361.4	6.504	13.70	5.65	1.61
	42.29	31.78	66.89	0.00	0.0608	10.58	465.4	400.85	0.0509	360.5	6.489	13.66	5.61	1.61
	43.29	31.81	66.86	0.00	0.0608	10.59	465.9	401.48	0.0502	362.4	6.523	13.74	5.69	1.61
	44.29	31.79	66.89	0.00	0.0609	10.60	466.6	401.93	0.0506	366.7	6.600	13.90	5.86	1.60
	45.29	31.79	66.87	0.00	0.0608	10.60	466.3	401.82	0.0506	365.9	6.586	13.87	5.83	1.60
	46.30	31.79	66.87	0.00	0.0609	10.59	465.9	401.41	0.0506	363.6	6.544	13.78	5.74	1.61
	47.28	31.84	66.87	0.00	0.0608	10.61	466.9	402.34	0.0505	369.0	6.642	13.99	5.95	1.60
	48.28	31.81	66.87	0.00	0.0608	10.58	465.7	401.29	0.0505	364.6	6.563	13.83	5.78	1.61
	49.30	31.84	66.89	0.00	0.0608	10.59	466.0	401.49	0.0506	365.8	6.585	13.87	5.83	1.61
	50.31	31.80	66.89	-0.00	0.0608	10.59	466.0	401.43	0.0508	368.3	6.629	13.96	5.92	1.61
	51.29	31.84	66.87	0.00	0.0608	10.59	465.8	401.44	0.0506	364.5	6.561	13.82	5.77	1.60
	52.31	31.81	66.87	-0.00	0.0608	10.60	466.4	401.92	0.0505	365.5	6.578	13.86	5.81	1.61
	53.30	31.81	66.84	-0.00	0.0609	10.60	466.2	401.91	0.0508	368.4	6.631	13.97	5.93	1.61
	54.30	31.80	66.87	-0.00	0.0609	10.61	466.7	402.15	0.0510	372.9	6.712	14.14	6.10	1.61
	55.29	31.79	66.87	0.00	0.0609	10.60	466.6	402.02	0.0513	375.2	6.753	14.22	6.19	1.61
	56.30	31.82	66.87	0.00	0.0609	10.60	466.5	402.05	0.0515	376.1	6.770	14.26	6.23	1.60
	57.28	31.79	66.87	0.00	0.0608	10.61	466.7	402.16	0.0511	375.0	6.749	14.22	6.18	1.60
	58.28	31.79	66.89	0.00	0.0609	10.59	466.0	401.43	0.0513	375.0	6.751	14.21	6.18	1.61
	59.30	31.81	66.87	0.00	0.0608	10.60	466.5	401.99	0.0511	371.5	6.688	14.09	6.05	1.61
	60.29	31.81	66.87	0.00	0.0609	10.60	466.4	401.93	0.0508	368.3	6.629	13.96	5.92	1.61
	61.31	31.84	66.89	-0.00	0.0609	10.59	465.9	401.40	0.0510	368.8	6.638	13.98	5.94	1.61
	62.32	31.81	66.89	-0.00	0.0609	10.60	466.4	401.80	0.0508	368.9	6.640	13.98	5.95	1.60
	63.30	31.81	66.87	-0.00	0.0608	10.58	465.6	401.24	0.0510	368.9	6.641	13.99	5.95	1.60
	64.30	31.81	66.89	-0.00	0.0609	10.60	466.5	401.84	0.0515	374.4	6.739	14.19	6.16	1.60
	65.30	31.79	66.89	0.00	0.0608	10.59	465.8	401.22	0.0514	374.4	6.739	14.19	6.16	1.61
	66.30	31.78	66.89	0.00	0.0608	10.58	465.5	400.94	0.0512	372.7	6.709	14.13	6.09	1.61
	67.30	31.79	66.87	-0.00	0.0608	10.59	465.9	401.48	0.0511	372.7	6.708	14.13	6.09	1.60
	68.30	31.78	66.89	0.00	0.0608	10.59	466.1	401.48	0.0513	376.4	6.775	14.27	6.24	1.60
	69.30	31.79	66.87	0.00	0.0608	10.59	466.2	401.69	0.0517	377.5	6.794	14.31	6.28	1.60
	70.36	31.82	66.87	0.00	0.0608	10.56	464.8	400.59	0.0514	372.2	6.700	14.11	6.08	1.60
	71.28	31.80	66.87	0.00	0.0609	10.60	466.5	401.99	0.0518	379.0	6.822	14.37	6.34	1.61
	72.31	31.77	66.87	-0.00	0.0609	10.60	466.3	401.78	0.0513	373.5	6.724	14.16	6.13	1.61
	73.29	31.75	66.89	0.00	0.0608	10.59	466.0	401.40	0.0516	376.6	6.778	14.27	6.24	1.60
	74.29	31.73	66.90	0.00	0.0608	10.59	465.8	401.08	0.0519	378.2	6.807	14.33	6.30	1.61
	75.29	31.70	66.92	0.00	0.0608	10.58	465.6	400.78	0.0520	381.1	6.859	14.43	6.41	1.60
	76.28	31.73	66.87	0.00	0.0609	10.60	466.3	401.71	0.0524	383.3	6.899	14.53	6.50	1.61
	77.30	31.71	66.89	-0.00	0.0608	10.60	466.2	401.48	0.0523	384.2	6.915	14.56	6.53	1.61
	78.31	31.69	66.84	-0.00	0.0608	10.58	465.5	401.12	0.0523	383.9	6.910	14.56	6.52	1.60
	79.30	31.72	66.87	0.00	0.0607	10.56	464.6	400.28	0.0519	381.3	6.864	14.45	6.42	1.60
	80.29	31.67	66.89	0.00	0.0607	10.56	464.7	400.13	0.0524	381.6	6.868	14.46	6.43	1.61
	81.31	31.71	66.89	-0.00	0.0609	10.59	466.0	401.30	0.0531	390.3	7.025	14.79	6.76	1.60
	82.29	31.68	66.84	0.00	0.0610	10.61	466.7	402.12	0.0521	382.8	6.890	14.51	6.47	1.61
	83.29	31.76	66.86	0.00	0.0608	10.59	465.9	401.47	0.0531	391.0	7.037	14.82	6.79	1.61
	84.36	31.71	66.90	0.00	0.0608	10.57	465.0	400.45	0.0531	390.9	7.036	14.81	6.78	1.60
	85.30	31.74	66.89	-0.00	0.0607	10.56	464.8	400.32	0.0529	389.1	7.003	14.74	6.71	1.60
	86.30	31.76	66.87	0.00	0.0609	10.61	466.7	402.12	0.0533	391.0	7.038	14.82	6.79	1.60
	87.28	31.71	66.90	-0.00	0.0610	10.61	466.8	401.99	0.0540	399.4	7.189	15.13	7.09	1.60
	88.30	31.69	66.85	-0.00	0.0610	10.60	466.6	402.05	0.0525	386.9	6.964	14.67	6.63	1.61
	89.31	31.70	66.89	-0.00	0.0609	10.62	467.1	402.26	0.0524	380.8	6.855	14.43	6.40	1.61
	90.31	31.67	66.87	-0.00	0.0609	10.59	466.2	401.54	0.0531	391.2	7.042	14.83	6.79	1.60
	91.37	31.67	66.87	0.00	0.0610	10.60	466.2	401.56	0.0535	390.6	7.031	14.80	6.77	1.60
	92.31	31.67	66.89	-0.00	0.0609	10.61	466.7	401.88	0.0536	398.4	7.171	15.09	7.06	1.60
	93.29	31.69	66.87	0.00	0.0609	10.61	466.8	402.14	0.0538	392.5	7.065	14.88	6.84	1.60
	94.30	31.68	66.87	-0.00	0.0610	10.62	467.2	402.41	0.0534	395.1	7.112	14.97	6.94	1.61
	95.28	31.71	66.89	0.00	0.0608	10.59	465.9	401.20	0.0533	393.8	7.088	14.92	6.89	1.61
	96.28	31.73	66.84	0.00	0.0608	10.58	465.4	401.08	0.0534	394.6	7.103	14.97	6.92	1.60
	97.38	31.73	66.89	0.00	0.0608	10.57	465.2	400.67	0.0535	395.6	7.121	14.99	6.96	1.60
	98.36	31.76	66.89	0.00	0.0609	10.58	465.4	400.83	0.0538	398.3	7.169	15.09	7.06	1.60
	99.28	31.73	66.89	0.00	0.0608	10.58	465.6	400.96	0.0537	396.1	7.131	15.01	6.98	1.60
	100.29	31.75	66.89	0.00	0.0607	10.56	464.8	400.35	0.0534	395.3	7.116	14.98	6.95	1.61
	101.31	31.69	66.87	0.00	0.0609	10.60	466.5	401.86	0.0542	402.4	7.244	15.25	7.20	1.60
	102.29	31.72	66.87	0.00	0.0609	10.61	467.0	402.28	0.0540	401.4	7.226	15.22	7.17	1.60
	103.30	31.70	66.87	-0.00	0.0610	10.59	466.2	401.57	0.0541	400.3	7.206	15.17	7.13	1.60
	104.30	31.69	66.89	-0.00	0.0610	10.63	467.6	402.68	0.0547	408.2	7.347	15.47	7.41	1.60
	105.30	31.68	66.87	-0.00	0.0610	10.61	466.8	402.11	0.0544	405.0	7.290	15.35	7.30	1.61
	106.28	31.67	66.87	0.00	0.0610	10.61	466.9	402.11	0.0544	404.3	7.277	15.32	7.27	1.61
	107.28	31.67	66.84	0.00	0.0610	10.62	467.3	402.69	0.0547	408.5	7.353	15.49	7.42	1.60
	108.30	31.72	66.89	0.00	0.0609	10.62	467.2	402.39	0.0547	407.7	7.338	15.45	7.39	1.60
	109.31	31.69	66.89	-0.00	0.0610	10.62	467.4	402.46	0.0546	407.3	7.331	15.43	7.38	1.60
	110.31	31.69	66.89	-0.00	0.0610	10.62	467.1	402.20	0.0547	407.8	7.340	15.45	7.40	1.60
	111.29	31.71	66.87	0.00	0.0610	10.62	467.1	402.37	0.0549	410.2	7.383	15.55	7.48	1.60
	112.29	31.74	66.87	-0.00	0.0608	10.56	464.6	400.31	0.0548	408.8	7.359	15.50	7.44	1.61
	113.30	31.74	66.87	-0.00	0.0608	10.58	465.3	400.87	0.0546	408.8	7.358	15.49	7.43	1.61
	114.29	31.74	66.89	0.00	0.0610	10.62	467.2	402.36	0.0555	415.4	7.477	15.74	7.67	1.60
	115.30	31.77	66.85	0.00	0.0610	10.62	467.5	402.94	0.0552	414.7	7.464	15.73	7.65	1.60
	116.28	31.77	66.87	0.00	0.0610	10.62	467.4	402.76	0.0552	412.1	7.418	15.62	7.56	1.60
	117.30	31.80	66.91	0.00	0.0611	10.62	467.2	402.29	0.0556	417.2	7.509	15.81	7.74	1.60
	118.37	31.82	66.89	-0.00	0.0610	10.63	467.7	402.92	0.0556	419.2	7.545	15.89	7.81	1.61
	119.29	31.78	66.87	0.00	0.0610	10.63	467.7	402.97	0.0558	417.5	7.514	15.83	7.75	1.61
