Jul 28 2015 at 15:50:09
Frequency: 1.00Hz.
CO2
Zero:  Value:0.95  Date:18 Mar 2005	 at 07:22:33	
Span:  Value:1.00  Date:18 Mar 2005	 at 07:25:09	
H2O
Zero:  Value:0.71  Date:18 Mar 2005	 at 07:52:31	
Span:  Value:0.99  Date:18 Mar 2005	 at 11:44:01	
	Relative Time	Temperature	Pressure	Aux Input	CO2 Absorptance	CO2 mmol/m3	CO2 mg/m3	CO2 umol/mol	H2O Absorptance	H2O mmol/m3	H2O g/m3	H2O mmol/mol	H2O(°C)	Cooler Voltage
	0.58	31.44	66.89	-0.00	0.0615	10.75	472.8	406.80	0.0417	283.7	5.107	10.74	2.19	1.61
	1.58	31.47	66.89	0.00	0.0617	10.77	473.7	407.61	0.0407	272.6	4.907	10.32	1.63	1.62
	2.56	31.49	66.89	0.00	0.0615	10.75	473.0	407.03	0.0411	276.2	4.971	10.46	1.82	1.62
	3.56	31.49	66.87	-0.00	0.0616	10.75	472.9	407.09	0.0409	271.8	4.892	10.29	1.59	1.61
	4.57	31.52	66.87	0.00	0.0616	10.72	471.8	406.21	0.0415	283.0	5.095	10.72	2.16	1.61
	5.57	31.51	66.87	-0.00	0.0613	10.69	470.2	404.81	0.0435	292.9	5.273	11.10	2.64	1.61
	6.55	31.51	66.87	-0.00	0.0613	10.69	470.5	405.08	0.0435	300.1	5.402	11.37	2.98	1.61
	7.58	31.50	66.87	-0.00	0.0613	10.70	471.0	405.46	0.0426	291.0	5.237	11.02	2.55	1.61
	8.56	31.51	66.87	0.00	0.0614	10.70	470.7	405.25	0.0438	298.6	5.375	11.31	2.91	1.61
	9.56	31.52	66.87	0.00	0.0615	10.73	472.2	406.55	0.0419	283.3	5.100	10.73	2.18	1.61
	10.58	31.55	66.90	0.00	0.0614	10.73	472.0	406.22	0.0421	285.9	5.146	10.83	2.30	1.61
	11.57	31.53	66.87	0.00	0.0614	10.72	471.6	406.04	0.0423	286.5	5.157	10.85	2.33	1.61
	12.56	31.54	66.92	0.00	0.0613	10.72	471.6	405.70	0.0429	289.4	5.209	10.96	2.47	1.61
	13.56	31.58	66.90	0.00	0.0614	10.71	471.4	405.70	0.0435	298.4	5.371	11.30	2.91	1.61
	14.57	31.56	66.87	0.00	0.0614	10.70	471.0	405.56	0.0427	295.1	5.312	11.18	2.75	1.61
	15.57	31.53	66.92	0.00	0.0614	10.72	471.5	405.63	0.0438	303.2	5.458	11.48	3.13	1.61
	16.55	31.53	66.89	0.00	0.0613	10.67	469.5	404.08	0.0443	308.1	5.546	11.67	3.36	1.61
	17.57	31.53	66.89	0.00	0.0613	10.68	470.1	404.59	0.0437	299.1	5.383	11.33	2.94	1.61
	18.64	31.53	66.90	-0.00	0.0610	10.63	467.8	402.59	0.0447	307.3	5.531	11.64	3.32	1.61
	19.55	31.52	66.89	0.00	0.0612	10.66	469.0	403.65	0.0446	307.7	5.538	11.65	3.34	1.61
	20.58	31.53	66.89	-0.00	0.0611	10.66	469.0	403.59	0.0455	315.7	5.683	11.96	3.70	1.61
	21.56	31.52	66.92	0.00	0.0611	10.64	468.0	402.62	0.0488	338.5	6.092	12.81	4.69	1.61
	22.56	31.55	66.87	0.00	0.0610	10.63	467.6	402.64	0.0487	349.6	6.292	13.24	5.16	1.61
	23.57	31.58	66.89	0.00	0.0611	10.64	468.3	403.09	0.0499	356.8	6.422	13.51	5.45	1.61
	24.57	31.55	66.89	0.00	0.0609	10.62	467.5	402.35	0.0512	367.5	6.615	13.92	5.88	1.61
	25.57	31.57	66.87	0.00	0.0607	10.59	466.0	401.25	0.0485	351.2	6.322	13.31	5.23	1.61
	26.58	31.55	66.87	0.00	0.0608	10.59	466.1	401.31	0.0487	346.5	6.238	13.13	5.03	1.61
	27.57	31.58	66.89	0.00	0.0606	10.52	463.0	398.49	0.0496	356.3	6.413	13.49	5.43	1.61
	28.58	31.58	66.89	-0.00	0.0606	10.55	464.0	399.38	0.0502	363.6	6.545	13.77	5.73	1.61
	29.56	31.53	66.87	0.00	0.0608	10.56	464.7	400.09	0.0490	344.7	6.204	13.06	4.96	1.61
	30.58	31.55	66.92	-0.00	0.0608	10.58	465.5	400.55	0.0498	363.2	6.538	13.75	5.71	1.61
	31.56	31.58	66.89	0.00	0.0609	10.57	465.3	400.50	0.0489	348.2	6.267	13.19	5.10	1.61
	32.57	31.55	66.87	0.00	0.0609	10.58	465.4	400.73	0.0494	349.7	6.295	13.25	5.16	1.61
	33.57	31.57	66.87	-0.00	0.0604	10.51	462.4	398.11	0.0509	370.5	6.669	14.04	6.00	1.61
	34.57	31.56	66.87	-0.00	0.0604	10.49	461.6	397.43	0.0500	361.8	6.513	13.71	5.65	1.61
	35.55	31.55	66.89	0.00	0.0607	10.54	463.8	399.18	0.0515	368.6	6.634	13.96	5.92	1.61
	36.58	31.58	66.86	-0.00	0.0605	10.51	462.2	398.04	0.0512	371.1	6.679	14.06	6.02	1.61
	37.56	31.55	66.89	0.00	0.0604	10.50	462.2	397.78	0.0501	362.3	6.522	13.72	5.67	1.61
	38.56	31.58	66.89	0.00	0.0604	10.48	460.9	396.76	0.0500	358.6	6.455	13.58	5.53	1.61
	39.58	31.57	66.89	0.00	0.0604	10.49	461.4	397.19	0.0506	360.1	6.481	13.64	5.58	1.61
	40.56	31.57	66.87	0.00	0.0605	10.52	462.7	398.46	0.0503	363.2	6.537	13.76	5.71	1.61
	41.57	31.53	66.90	0.00	0.0603	10.48	461.3	396.96	0.0497	358.6	6.455	13.58	5.53	1.61
	42.59	31.54	66.87	-0.00	0.0606	10.54	463.7	399.25	0.0503	362.5	6.525	13.73	5.68	1.61
	43.57	31.57	66.89	-0.00	0.0605	10.50	462.0	397.71	0.0501	360.7	6.493	13.66	5.61	1.61
	44.55	31.58	66.89	0.00	0.0605	10.51	462.4	398.04	0.0503	362.3	6.522	13.72	5.68	1.61
	45.57	31.60	66.89	0.00	0.0604	10.47	460.7	396.60	0.0509	363.2	6.538	13.76	5.71	1.61
	46.57	31.57	66.87	0.00	0.0604	10.51	462.6	398.35	0.0522	384.2	6.915	14.55	6.52	1.61
	47.55	31.56	66.89	0.00	0.0602	10.47	460.5	396.34	0.0527	382.7	6.889	14.49	6.47	1.61
	48.56	31.62	66.91	0.00	0.0596	10.30	453.1	389.99	0.0568	436.0	7.849	16.51	8.38	1.61
	49.56	31.59	66.89	0.00	0.0597	10.29	452.6	389.60	0.0540	410.4	7.387	15.54	7.49	1.61
	50.56	31.59	66.89	-0.00	0.0598	10.31	453.6	390.49	0.0558	422.5	7.605	16.00	7.91	1.61
	51.57	31.58	66.87	-0.00	0.0600	10.44	459.2	395.44	0.0553	411.5	7.407	15.59	7.52	1.61
	52.57	31.57	66.87	0.00	0.0601	10.39	457.2	393.70	0.0552	411.2	7.401	15.58	7.51	1.61
	53.65	31.58	66.87	-0.00	0.0599	10.39	457.0	393.48	0.0549	410.6	7.390	15.56	7.49	1.61
	54.65	31.57	66.87	0.00	0.0599	10.39	457.2	393.70	0.0553	412.0	7.416	15.61	7.54	1.61
	55.58	31.56	66.90	-0.00	0.0599	10.37	456.2	392.65	0.0569	432.7	7.788	16.39	8.26	1.61
	56.57	31.57	66.90	0.00	0.0600	10.43	458.9	394.96	0.0567	432.1	7.777	16.36	8.24	1.61
	57.58	31.57	66.89	0.00	0.0599	10.40	457.4	393.74	0.0565	429.1	7.725	16.25	8.14	1.61
	58.58	31.59	66.90	-0.00	0.0599	10.38	456.8	393.18	0.0563	424.9	7.649	16.09	8.00	1.61
	59.58	31.56	66.89	-0.00	0.0595	10.31	453.5	390.37	0.0581	442.8	7.970	16.77	8.60	1.61
	60.58	31.55	66.89	0.00	0.0598	10.34	455.1	391.65	0.0572	437.5	7.875	16.57	8.42	1.61
	61.56	31.55	66.89	0.00	0.0595	10.29	452.7	389.63	0.0581	444.0	7.993	16.82	8.64	1.61
	62.57	31.55	66.89	-0.00	0.0595	10.29	452.7	389.68	0.0580	443.1	7.977	16.78	8.61	1.61
	63.57	31.54	66.87	-0.00	0.0597	10.30	453.4	390.36	0.0579	442.8	7.970	16.77	8.60	1.61
	64.57	31.56	66.87	0.00	0.0599	10.38	456.8	393.29	0.0569	431.4	7.765	16.34	8.22	1.61
	65.64	31.54	66.84	-0.00	0.0597	10.35	455.6	392.39	0.0578	442.3	7.961	16.76	8.58	1.61
	66.57	31.54	66.87	0.00	0.0596	10.31	453.8	390.70	0.0587	448.7	8.077	17.00	8.80	1.61
	67.58	31.53	66.87	0.00	0.0594	10.27	451.9	389.10	0.0585	452.3	8.141	17.13	8.91	1.61
	68.58	31.58	66.87	0.00	0.0593	10.27	452.0	389.18	0.0589	450.2	8.104	17.06	8.85	1.61
	69.56	31.55	66.89	0.00	0.0592	10.22	449.9	387.17	0.0588	451.2	8.122	17.09	8.88	1.61
	70.59	31.55	66.90	0.00	0.0597	10.35	455.3	391.88	0.0593	457.9	8.243	17.34	9.10	1.61
	71.57	31.53	66.89	0.00	0.0598	10.34	454.9	391.55	0.0598	460.8	8.295	17.45	9.19	1.61
	72.63	31.59	66.87	-0.00	0.0596	10.34	454.8	391.61	0.0590	454.8	8.187	17.23	9.00	1.61
	73.57	31.57	66.89	-0.00	0.0595	10.27	452.0	389.07	0.0589	456.4	8.216	17.29	9.05	1.61
	74.57	31.57	66.87	0.00	0.0596	10.33	454.4	391.28	0.0587	452.0	8.135	17.12	8.91	1.61
	75.55	31.58	66.87	0.00	0.0594	10.26	451.4	388.65	0.0606	463.1	8.335	17.54	9.26	1.61
	76.58	31.54	66.87	-0.00	0.0595	10.30	453.2	390.23	0.0607	473.9	8.530	17.95	9.61	1.61
	77.56	31.55	66.85	0.00	0.0592	10.22	449.7	387.35	0.0603	468.8	8.439	17.77	9.45	1.61
	78.56	31.54	66.94	0.00	0.0591	10.18	447.8	385.14	0.0612	476.9	8.585	18.05	9.70	1.61
	79.56	31.55	66.89	-0.00	0.0591	10.23	450.0	387.28	0.0608	476.5	8.578	18.05	9.69	1.61
	80.57	31.55	66.87	0.00	0.0593	10.24	450.7	388.08	0.0620	488.2	8.788	18.50	10.05	1.61
	81.56	31.58	66.92	-0.00	0.0595	10.30	453.4	390.11	0.0607	471.4	8.485	17.85	9.53	1.61
	82.57	31.53	66.89	-0.00	0.0592	10.21	449.3	386.65	0.0614	477.8	8.600	18.09	9.73	1.61
	83.57	31.55	66.89	0.00	0.0594	10.27	451.9	388.91	0.0615	484.7	8.725	18.36	9.94	1.61
	84.57	31.54	66.87	0.00	0.0592	10.20	448.7	386.33	0.0611	478.0	8.605	18.11	9.74	1.61
	85.57	31.56	66.89	-0.00	0.0593	10.24	450.8	387.97	0.0611	474.2	8.535	17.96	9.62	1.61
	86.55	31.53	66.89	0.00	0.0594	10.27	451.8	388.85	0.0617	481.5	8.666	18.23	9.84	1.61
	87.58	31.56	66.90	-0.00	0.0594	10.26	451.5	388.61	0.0618	485.4	8.738	18.38	9.97	1.61
	88.56	31.51	66.89	0.00	0.0592	10.19	448.3	385.82	0.0613	479.2	8.625	18.14	9.77	1.61
	89.56	31.56	66.87	-0.00	0.0592	10.22	449.8	387.30	0.0613	480.1	8.642	18.19	9.80	1.61
	90.56	31.55	66.89	0.00	0.0589	10.14	446.3	384.10	0.0616	482.8	8.690	18.28	9.88	1.61
	91.64	31.55	66.87	0.00	0.0592	10.22	449.7	387.16	0.0622	489.6	8.813	18.55	10.09	1.61
	92.63	31.56	66.89	0.00	0.0589	10.17	447.6	385.25	0.0625	492.9	8.872	18.67	10.20	1.61
	93.58	31.54	66.87	-0.00	0.0590	10.19	448.3	385.98	0.0624	491.9	8.854	18.63	10.16	1.61
	94.57	31.55	66.87	0.00	0.0588	10.10	444.5	382.75	0.0630	502.4	9.043	19.03	10.48	1.61
	95.58	31.54	66.85	-0.00	0.0581	10.03	441.2	380.01	0.0654	527.4	9.494	19.99	11.21	1.61
	96.58	31.57	66.87	0.00	0.0586	10.05	442.0	380.60	0.0638	516.8	9.303	19.58	10.91	1.61
	97.56	31.60	66.89	0.00	0.0584	10.07	442.9	381.29	0.0665	529.3	9.527	20.05	11.27	1.61
	98.56	31.57	66.87	0.00	0.0589	10.19	448.4	386.10	0.0641	511.5	9.207	19.38	10.75	1.61
	99.64	31.59	66.87	0.00	0.0589	10.18	448.1	385.85	0.0644	510.2	9.183	19.33	10.71	1.61
	100.57	31.55	66.89	-0.00	0.0589	10.19	448.3	385.85	0.0637	505.7	9.103	19.15	10.58	1.61
	101.56	31.58	66.89	0.00	0.0591	10.20	448.6	386.18	0.0639	511.3	9.204	19.37	10.75	1.61
	102.65	31.64	66.87	-0.00	0.0590	10.17	447.6	385.46	0.0635	506.3	9.113	19.19	10.60	1.61
	103.55	31.55	66.89	0.00	0.0590	10.17	447.3	385.01	0.0639	509.8	9.176	19.31	10.70	1.61
	104.57	31.62	66.89	-0.00	0.0588	10.12	445.3	383.33	0.0653	523.9	9.430	19.84	11.11	1.61
	105.57	31.59	66.89	0.00	0.0587	10.13	445.8	383.71	0.0654	528.1	9.506	20.00	11.23	1.61
	106.63	31.58	66.87	0.00	0.0584	10.05	442.2	380.75	0.0652	528.0	9.504	20.01	11.23	1.61
	107.56	31.60	66.87	-0.00	0.0584	10.06	442.5	381.08	0.0656	529.5	9.531	20.06	11.27	1.61
	108.59	31.58	66.89	-0.00	0.0586	10.08	443.7	381.95	0.0660	532.0	9.576	20.15	11.34	1.61
	109.65	31.59	66.90	-0.00	0.0586	10.08	443.4	381.66	0.0658	528.4	9.512	20.01	11.24	1.61
	110.56	31.58	66.89	0.00	0.0588	10.13	445.9	383.82	0.0653	527.3	9.492	19.97	11.21	1.61
	111.59	31.57	66.87	-0.00	0.0589	10.14	446.4	384.33	0.0652	523.3	9.419	19.82	11.09	1.61
	112.59	31.59	66.89	-0.00	0.0585	10.06	442.6	380.98	0.0658	531.9	9.575	20.15	11.34	1.61
	113.57	31.59	66.89	-0.00	0.0584	10.06	442.5	380.93	0.0667	544.1	9.794	20.61	11.68	1.61
	114.58	31.62	66.92	-0.00	0.0582	10.00	439.9	378.57	0.0676	554.4	9.979	20.99	11.97	1.61
	115.56	31.61	66.92	0.00	0.0582	10.03	441.2	379.64	0.0682	555.5	10.000	21.04	12.00	1.61
	116.63	31.61	66.86	0.00	0.0581	9.97	438.8	377.92	0.0689	567.4	10.214	21.50	12.32	1.61
	117.58	31.61	66.87	-0.00	0.0585	10.03	441.3	380.00	0.0677	556.4	10.016	21.08	12.02	1.61
	118.56	31.63	66.87	0.00	0.0582	9.99	439.4	378.43	0.0684	574.4	10.340	21.77	12.51	1.61
	119.56	31.64	66.89	0.00	0.0584	10.04	441.6	380.24	0.0677	555.7	10.003	21.05	12.01	1.61
	120.57	31.59	66.88	-0.00	0.0582	10.00	440.0	378.82	0.0678	558.5	10.053	21.16	12.08	1.61
	121.57	31.63	66.92	-0.00	0.0581	9.96	438.3	377.17	0.0676	553.1	9.956	20.94	11.93	1.61
	122.55	31.59	66.89	0.00	0.0581	10.01	440.3	379.04	0.0690	562.5	10.126	21.31	12.19	1.61
	123.57	31.59	66.88	-0.00	0.0579	9.94	437.5	376.69	0.0696	575.9	10.367	21.82	12.55	1.61
	124.55	31.62	66.92	0.00	0.0579	9.96	438.3	377.21	0.0687	568.1	10.225	21.51	12.34	1.61
	125.58	31.53	66.92	-0.00	0.0586	9.92	436.6	375.65	0.0660	570.7	10.273	21.60	12.41	1.61
