Jul 28 2015 at 13:58:38
Frequency: 1.00Hz.
CO2
Zero:  Value:0.95  Date:18 Mar 2005	 at 07:22:33	
Span:  Value:1.00  Date:18 Mar 2005	 at 07:25:09	
H2O
Zero:  Value:0.71  Date:18 Mar 2005	 at 07:52:31	
Span:  Value:0.99  Date:18 Mar 2005	 at 11:44:01	
	Relative Time	Temperature	Pressure	Aux Input	CO2 Absorptance	CO2 mmol/m3	CO2 mg/m3	CO2 umol/mol	H2O Absorptance	H2O mmol/m3	H2O g/m3	H2O mmol/mol	H2O(°C)	Cooler Voltage
	0.33	31.59	67.68	0.00	0.0621	10.82	476.2	405.20	0.0380	247.5	4.454	9.26	0.30	1.58
	1.33	31.63	67.68	0.00	0.0621	10.83	476.7	405.63	0.0380	247.1	4.448	9.25	0.28	1.58
	2.33	31.61	67.70	0.00	0.0620	10.82	475.9	404.83	0.0378	246.7	4.441	9.23	0.26	1.58
	3.34	31.64	67.70	-0.00	0.0620	10.83	476.5	405.32	0.0381	248.3	4.470	9.30	0.35	1.58
	4.32	31.64	67.68	0.00	0.0621	10.82	476.1	405.19	0.0385	252.5	4.545	9.45	0.58	1.58
	5.34	31.66	67.70	-0.00	0.0619	10.79	474.7	403.84	0.0385	253.8	4.569	9.50	0.65	1.58
	6.33	31.68	67.68	-0.00	0.0620	10.81	475.5	404.70	0.0389	255.0	4.589	9.55	0.71	1.58
	7.33	31.67	67.70	-0.00	0.0619	10.78	474.3	403.57	0.0388	254.3	4.578	9.52	0.68	1.58
	8.33	31.69	67.70	-0.00	0.0616	10.74	472.4	401.96	0.0389	255.5	4.598	9.56	0.74	1.58
	9.33	31.67	67.68	-0.00	0.0617	10.76	473.4	402.89	0.0394	261.1	4.700	9.78	1.04	1.58
	10.31	31.69	67.68	0.00	0.0617	10.72	471.6	401.38	0.0391	257.6	4.638	9.65	0.86	1.58
	11.33	31.74	67.70	-0.00	0.0614	10.72	471.9	401.57	0.0400	265.2	4.773	9.93	1.26	1.58
	12.32	31.73	67.65	-0.00	0.0614	10.68	470.0	400.22	0.0406	271.2	4.882	10.16	1.57	1.58
	13.32	31.72	67.68	0.00	0.0615	10.69	470.4	400.39	0.0412	272.6	4.908	10.21	1.65	1.58
	14.32	31.70	67.70	-0.00	0.0617	10.72	471.5	401.17	0.0440	295.1	5.312	11.05	2.76	1.58
	15.32	31.73	67.70	0.00	0.0615	10.69	470.5	400.39	0.0427	293.7	5.287	11.00	2.69	1.58
	16.32	31.75	67.68	0.00	0.0615	10.69	470.6	400.60	0.0410	274.0	4.932	10.26	1.72	1.58
	17.41	31.76	67.70	-0.00	0.0615	10.70	470.9	400.72	0.0411	274.7	4.944	10.29	1.75	1.58
	18.33	31.68	67.68	-0.00	0.0614	10.67	469.4	399.53	0.0422	284.5	5.121	10.65	2.24	1.58
	19.33	31.69	67.72	0.00	0.0614	10.68	470.0	399.72	0.0421	283.9	5.110	10.62	2.21	1.58
	20.33	31.69	67.72	-0.00	0.0614	10.68	470.1	399.82	0.0405	271.4	4.885	10.16	1.58	1.58
	21.33	31.69	67.68	0.00	0.0614	10.68	470.0	400.02	0.0393	261.8	4.712	9.80	1.08	1.58
	22.31	31.72	67.68	0.00	0.0614	10.67	469.5	399.62	0.0395	260.8	4.695	9.77	1.03	1.58
	23.32	31.69	67.70	0.00	0.0615	10.69	470.4	400.20	0.0396	260.7	4.692	9.76	1.02	1.58
	24.30	31.67	67.68	0.00	0.0615	10.70	470.7	400.60	0.0401	265.1	4.771	9.93	1.25	1.58
	25.32	31.69	67.68	0.00	0.0615	10.69	470.4	400.35	0.0401	265.1	4.772	9.93	1.25	1.58
	26.32	31.71	67.68	0.00	0.0615	10.69	470.5	400.50	0.0403	267.5	4.816	10.02	1.38	1.58
	27.33	31.72	67.72	-0.00	0.0614	10.69	470.3	400.01	0.0403	268.6	4.835	10.05	1.44	1.58
	28.32	31.69	67.68	0.00	0.0614	10.68	469.8	399.90	0.0407	272.1	4.898	10.19	1.62	1.58
	29.34	31.69	67.68	-0.00	0.0614	10.69	470.2	400.18	0.0411	275.7	4.962	10.32	1.80	1.58
	30.36	31.72	67.72	0.00	0.0614	10.68	469.8	399.62	0.0411	275.4	4.957	10.31	1.79	1.58
	31.32	31.70	67.70	0.00	0.0613	10.67	469.3	399.29	0.0414	277.1	4.988	10.37	1.87	1.58
	32.32	31.68	67.70	0.00	0.0613	10.66	468.9	398.92	0.0418	280.8	5.055	10.51	2.06	1.58
	33.34	31.65	67.68	-0.00	0.0613	10.66	469.1	399.21	0.0422	284.6	5.122	10.66	2.24	1.58
	34.32	31.65	67.70	0.00	0.0613	10.66	469.0	398.97	0.0420	283.5	5.103	10.61	2.19	1.58
	35.34	31.63	67.68	-0.00	0.0613	10.66	468.9	398.98	0.0420	283.7	5.107	10.62	2.20	1.58
	36.32	31.63	67.68	0.00	0.0613	10.65	468.7	398.88	0.0423	284.8	5.126	10.66	2.25	1.58
	37.30	31.63	67.68	0.00	0.0613	10.66	468.9	399.00	0.0422	285.9	5.146	10.70	2.31	1.58
	38.31	31.65	67.70	0.00	0.0613	10.65	468.8	398.79	0.0421	284.3	5.118	10.64	2.23	1.58
	39.33	31.68	67.68	-0.00	0.0612	10.65	468.4	398.65	0.0421	284.7	5.125	10.66	2.25	1.58
	40.34	31.62	67.68	0.00	0.0612	10.64	468.1	398.32	0.0423	285.6	5.141	10.69	2.29	1.58
	41.31	31.64	67.67	0.00	0.0612	10.64	468.3	398.52	0.0425	287.1	5.168	10.75	2.37	1.58
	42.32	31.63	67.70	0.00	0.0612	10.64	468.3	398.38	0.0426	288.3	5.189	10.79	2.42	1.58
	43.32	31.64	67.70	-0.00	0.0612	10.64	468.2	398.30	0.0426	288.5	5.193	10.80	2.44	1.58
	44.32	31.61	67.70	0.00	0.0612	10.64	468.1	398.21	0.0427	289.6	5.212	10.84	2.48	1.58
	45.32	31.64	67.68	-0.00	0.0612	10.64	468.0	398.29	0.0428	290.3	5.226	10.87	2.52	1.58
	46.32	31.60	67.68	0.00	0.0613	10.64	468.3	398.51	0.0431	292.2	5.260	10.94	2.61	1.58
	47.32	31.60	67.70	0.00	0.0612	10.64	468.0	398.11	0.0432	293.9	5.290	11.00	2.69	1.58
	48.33	31.60	67.68	-0.00	0.0612	10.64	468.0	398.19	0.0434	295.6	5.321	11.07	2.78	1.58
	49.33	31.63	67.68	-0.00	0.0611	10.61	466.9	397.32	0.0434	296.0	5.327	11.08	2.79	1.58
	50.39	31.66	67.70	-0.00	0.0612	10.63	467.7	397.88	0.0438	298.4	5.372	11.17	2.91	1.58
	51.33	31.63	67.65	-0.00	0.0613	10.64	468.4	398.72	0.0442	302.9	5.453	11.35	3.12	1.58
	52.31	31.65	67.70	0.00	0.0612	10.63	467.6	397.80	0.0440	301.9	5.435	11.30	3.08	1.58
	53.31	31.64	67.68	0.00	0.0611	10.61	466.8	397.24	0.0438	299.5	5.391	11.21	2.96	1.58
	54.34	31.67	67.65	-0.00	0.0612	10.63	467.6	398.08	0.0440	300.8	5.414	11.27	3.02	1.58
	55.33	31.65	67.70	0.00	0.0612	10.63	467.7	397.83	0.0440	301.4	5.424	11.28	3.05	1.58
	56.32	31.74	67.68	0.00	0.0612	10.63	467.6	398.10	0.0441	301.8	5.432	11.30	3.07	1.58
	57.31	31.66	67.70	0.00	0.0612	10.63	467.9	398.09	0.0445	304.8	5.487	11.41	3.21	1.58
	58.33	31.68	67.68	0.00	0.0612	10.64	468.3	398.55	0.0447	307.1	5.528	11.50	3.32	1.58
	59.31	31.69	67.70	0.00	0.0612	10.64	468.0	398.23	0.0448	308.8	5.559	11.56	3.40	1.58
	60.33	31.67	67.68	-0.00	0.0612	10.63	467.9	398.19	0.0447	307.8	5.541	11.53	3.35	1.58
	61.31	31.69	67.70	0.00	0.0611	10.61	466.8	397.15	0.0442	303.6	5.465	11.37	3.16	1.59
	62.32	31.73	67.68	-0.00	0.0611	10.61	467.0	397.50	0.0444	304.4	5.480	11.40	3.20	1.58
	63.31	31.69	67.68	0.00	0.0611	10.62	467.3	397.74	0.0450	309.0	5.562	11.57	3.41	1.58
	64.32	31.74	67.70	0.00	0.0611	10.61	467.0	397.38	0.0454	313.8	5.649	11.75	3.63	1.58
	65.32	31.75	67.70	0.00	0.0610	10.59	466.0	396.57	0.0452	312.0	5.615	11.68	3.54	1.58
	66.32	31.75	67.68	0.00	0.0611	10.60	466.4	397.08	0.0454	314.2	5.656	11.77	3.65	1.59
	67.33	31.80	67.68	-0.00	0.0610	10.58	465.6	396.45	0.0457	316.3	5.694	11.85	3.74	1.59
	68.33	31.75	67.68	-0.00	0.0610	10.59	466.2	396.84	0.0461	321.5	5.788	12.04	3.97	1.58
	69.34	31.75	67.70	-0.00	0.0611	10.60	466.4	396.94	0.0458	317.9	5.722	11.90	3.81	1.58
	70.33	31.75	67.68	0.00	0.0611	10.61	466.7	397.31	0.0456	316.3	5.693	11.85	3.74	1.58
	71.34	31.77	67.67	-0.00	0.0611	10.61	466.9	397.49	0.0455	314.9	5.668	11.80	3.68	1.58
	72.32	31.78	67.70	0.00	0.0611	10.60	466.6	397.13	0.0452	312.5	5.625	11.70	3.57	1.59
	73.34	31.75	67.70	-0.00	0.0610	10.60	466.2	396.74	0.0450	311.7	5.610	11.67	3.53	1.59
	74.33	31.75	67.68	0.00	0.0610	10.58	465.7	396.42	0.0451	311.7	5.611	11.68	3.53	1.59
	75.32	31.73	67.70	0.00	0.0610	10.58	465.7	396.28	0.0453	313.0	5.634	11.72	3.59	1.59
	76.32	31.76	67.70	0.00	0.0610	10.59	466.0	396.57	0.0455	314.5	5.662	11.78	3.66	1.59
	77.31	31.77	67.68	0.00	0.0611	10.61	466.9	397.49	0.0459	317.1	5.707	11.88	3.77	1.59
	78.31	31.74	67.68	0.00	0.0611	10.62	467.1	397.67	0.0457	317.1	5.707	11.88	3.77	1.59
	79.33	31.79	67.70	0.00	0.0611	10.61	466.7	397.20	0.0460	319.9	5.758	11.98	3.90	1.59
	80.33	31.84	67.68	-0.00	0.0612	10.62	467.4	398.03	0.0474	331.1	5.959	12.40	4.39	1.59
	81.32	31.88	67.70	0.00	0.0612	10.63	467.5	398.01	0.0472	331.5	5.968	12.42	4.42	1.59
	82.31	31.94	67.70	0.00	0.0611	10.61	466.7	397.45	0.0473	331.8	5.972	12.43	4.43	1.59
	83.32	31.91	67.68	0.00	0.0610	10.60	466.3	397.15	0.0476	334.4	6.019	12.53	4.54	1.59
	84.33	31.99	67.68	-0.00	0.0610	10.60	466.3	397.25	0.0477	337.0	6.067	12.63	4.66	1.59
	85.33	32.00	67.70	-0.00	0.0612	10.61	466.9	397.67	0.0484	342.4	6.164	12.83	4.88	1.59
	86.33	31.99	67.72	-0.00	0.0613	10.63	467.9	398.32	0.0486	344.2	6.195	12.89	4.95	1.59
	87.41	31.99	67.70	-0.00	0.0613	10.66	468.9	399.27	0.0489	346.6	6.239	12.99	5.06	1.59
	88.33	31.99	67.72	-0.00	0.0615	10.69	470.3	400.38	0.0499	357.1	6.428	13.38	5.49	1.59
	89.34	31.97	67.68	0.00	0.0613	10.65	468.8	399.36	0.0489	349.2	6.286	13.09	5.16	1.59
	90.31	31.96	67.68	0.00	0.0613	10.65	468.7	399.24	0.0489	349.6	6.293	13.10	5.18	1.59
	91.34	31.97	67.70	-0.00	0.0612	10.63	467.6	398.24	0.0498	355.9	6.406	13.33	5.44	1.59
	92.32	32.08	67.68	-0.00	0.0612	10.64	468.2	398.97	0.0501	358.2	6.448	13.43	5.54	1.59
	93.32	32.09	67.70	0.00	0.0613	10.66	469.2	399.70	0.0496	357.5	6.435	13.40	5.51	1.59
	94.32	32.11	67.68	0.00	0.0612	10.62	467.5	398.45	0.0495	352.4	6.343	13.21	5.30	1.59
	95.33	32.12	67.68	-0.00	0.0614	10.66	469.1	399.80	0.0503	359.1	6.463	13.46	5.57	1.59
	96.31	32.11	67.68	0.00	0.0614	10.68	469.8	400.44	0.0506	364.6	6.564	13.67	5.79	1.59
	97.33	32.09	67.70	-0.00	0.0615	10.69	470.2	400.59	0.0506	364.3	6.558	13.66	5.78	1.59
	98.31	32.07	67.70	0.00	0.0616	10.72	471.6	401.77	0.0510	367.1	6.607	13.76	5.89	1.59
	99.31	32.05	67.73	0.00	0.0615	10.72	471.8	401.70	0.0505	365.9	6.586	13.71	5.84	1.59
	100.33	32.05	67.68	-0.00	0.0613	10.66	468.9	399.59	0.0496	355.0	6.390	13.31	5.40	1.59
	101.34	31.99	67.68	-0.00	0.0614	10.63	467.9	398.57	0.0510	361.9	6.513	13.56	5.68	1.59
	102.32	31.97	67.68	-0.00	0.0616	10.72	471.5	401.66	0.0518	374.9	6.748	14.05	6.19	1.59
	103.32	32.00	67.70	0.00	0.0616	10.72	471.6	401.70	0.0515	375.3	6.756	14.06	6.20	1.59
	104.32	32.00	67.70	0.00	0.0615	10.68	470.1	400.34	0.0516	369.6	6.652	13.85	5.98	1.59
	105.33	31.97	67.70	0.00	0.0616	10.71	471.2	401.26	0.0518	376.2	6.771	14.10	6.24	1.59
	106.33	31.95	67.72	-0.00	0.0615	10.71	471.5	401.33	0.0517	378.8	6.819	14.19	6.34	1.59
	107.39	31.94	67.68	0.00	0.0617	10.73	472.1	402.11	0.0527	383.5	6.903	14.37	6.51	1.59
	108.33	31.94	67.70	-0.00	0.0617	10.75	472.8	402.62	0.0528	387.1	6.968	14.50	6.65	1.59
	109.31	31.96	67.68	0.00	0.0617	10.74	472.3	402.39	0.0530	389.7	7.015	14.61	6.75	1.59
	110.32	31.94	67.72	-0.00	0.0616	10.73	472.1	401.85	0.0523	383.3	6.899	14.35	6.51	1.59
	111.32	31.92	67.68	-0.00	0.0616	10.72	471.5	401.60	0.0522	378.4	6.811	14.18	6.32	1.59
	112.32	31.85	67.68	0.00	0.0617	10.73	472.3	402.17	0.0531	387.5	6.976	14.52	6.66	1.59
	113.32	31.83	67.70	-0.00	0.0617	10.74	472.6	402.29	0.0536	395.2	7.114	14.80	6.95	1.60
	114.33	31.83	67.68	-0.00	0.0616	10.71	471.4	401.43	0.0531	389.9	7.018	14.61	6.75	1.59
	115.32	31.83	67.70	0.00	0.0616	10.71	471.2	401.14	0.0534	391.6	7.049	14.67	6.81	1.59
	116.33	31.84	67.68	-0.00	0.0615	10.69	470.5	400.62	0.0532	389.5	7.010	14.59	6.73	1.59
	117.33	31.85	67.70	-0.00	0.0614	10.69	470.3	400.38	0.0534	392.2	7.059	14.69	6.84	1.59
	118.33	31.85	67.70	0.00	0.0614	10.69	470.2	400.31	0.0535	393.2	7.078	14.73	6.88	1.60
	119.33	31.90	67.68	0.00	0.0617	10.75	473.1	402.89	0.0545	404.3	7.278	15.15	7.28	1.60
