Jul 28 2015 at 10:31:38
Frequency: 1.00Hz.
CO2
Zero:  Value:0.95  Date:18 Mar 2005	 at 07:22:33	
Span:  Value:1.00  Date:18 Mar 2005	 at 07:25:09	
H2O
Zero:  Value:0.71  Date:18 Mar 2005	 at 07:52:31	
Span:  Value:0.99  Date:18 Mar 2005	 at 11:44:01	
	Relative Time	Temperature	Pressure	Aux Input	CO2 Absorptance	CO2 mmol/m3	CO2 mg/m3	CO2 umol/mol	H2O Absorptance	H2O mmol/m3	H2O g/m3	H2O mmol/mol	H2O(°C)	Cooler Voltage
	0.75	25.34	67.65	0.00	0.0629	11.00	483.8	403.33	0.0365	233.3	4.200	8.56	-0.80	1.60
	1.81	25.33	67.65	0.00	0.0624	10.96	482.2	402.01	0.0363	234.6	4.223	8.61	-0.72	1.60
	2.78	25.36	67.65	-0.00	0.0627	10.97	482.5	402.30	0.0367	236.3	4.254	8.67	-0.62	1.60
	3.76	25.35	67.65	-0.00	0.0627	10.96	482.2	402.02	0.0367	237.9	4.282	8.73	-0.53	1.60
	4.76	25.34	67.65	0.00	0.0626	10.95	481.8	401.69	0.0366	237.6	4.276	8.72	-0.55	1.60
	5.76	25.34	67.67	-0.00	0.0624	10.89	479.3	399.47	0.0363	233.4	4.202	8.56	-0.79	1.60
	6.75	25.34	67.65	0.00	0.0624	10.88	478.8	399.16	0.0362	232.5	4.185	8.53	-0.84	1.60
	7.77	25.34	67.60	-0.00	0.0623	10.89	479.3	399.93	0.0364	232.0	4.176	8.52	-0.87	1.60
	8.75	25.34	67.70	0.00	0.0622	10.85	477.3	397.68	0.0362	232.5	4.185	8.52	-0.84	1.60
	9.75	25.36	67.65	0.00	0.0621	10.84	476.8	397.53	0.0364	233.8	4.209	8.58	-0.77	1.60
	10.76	25.36	67.60	0.00	0.0621	10.84	477.1	398.13	0.0363	234.6	4.224	8.61	-0.72	1.60
	11.76	25.36	67.65	-0.00	0.0620	10.83	476.5	397.28	0.0367	237.2	4.270	8.70	-0.57	1.60
	12.75	25.34	67.65	-0.00	0.0621	10.83	476.7	397.45	0.0372	240.3	4.326	8.82	-0.39	1.60
	13.74	25.34	67.65	0.00	0.0620	10.80	475.1	396.10	0.0373	242.0	4.357	8.88	-0.29	1.60
	14.76	25.34	67.67	-0.00	0.0621	10.84	476.8	397.39	0.0380	246.2	4.432	9.03	-0.06	1.60
	15.74	25.34	67.62	0.00	0.0622	10.83	476.6	397.48	0.0385	250.4	4.507	9.19	0.17	1.60
	16.75	25.34	67.65	-0.00	0.0620	10.85	477.5	398.13	0.0392	259.6	4.673	9.52	0.67	1.60
	17.77	25.34	67.65	-0.00	0.0618	10.79	474.8	395.82	0.0400	264.9	4.769	9.72	0.95	1.60
	18.75	25.31	67.68	0.00	0.0617	10.77	474.0	395.01	0.0415	272.6	4.906	9.99	1.35	1.60
	19.77	25.32	67.65	0.00	0.0619	10.78	474.1	395.28	0.0434	285.9	5.145	10.49	2.01	1.60
	20.76	25.36	67.62	-0.00	0.0619	10.77	473.7	395.13	0.0445	281.8	5.073	10.34	1.81	1.60
	21.75	25.36	67.70	0.00	0.0619	10.76	473.7	394.66	0.0416	288.4	5.191	10.57	2.14	1.60
	22.76	25.38	67.65	-0.00	0.0618	10.78	474.1	395.35	0.0412	298.5	5.373	10.95	2.62	1.60
	23.76	25.36	67.65	0.00	0.0618	10.79	474.5	395.67	0.0411	279.0	5.022	10.24	1.67	1.60
	24.74	25.36	67.65	0.00	0.0617	10.77	474.0	395.21	0.0424	285.4	5.138	10.47	1.99	1.60
	25.74	25.37	67.65	0.00	0.0620	10.77	474.0	395.19	0.0417	279.3	5.027	10.25	1.69	1.60
	26.75	25.38	67.65	0.00	0.0618	10.76	473.2	394.59	0.0432	287.0	5.166	10.53	2.07	1.60
	27.75	25.36	67.65	-0.00	0.0615	10.74	472.6	394.05	0.0423	293.2	5.277	10.76	2.37	1.60
	28.75	25.34	67.65	0.00	0.0618	10.78	474.2	395.34	0.0425	284.7	5.125	10.44	1.96	1.60
	29.77	25.34	67.65	-0.00	0.0615	10.73	472.0	393.52	0.0429	292.6	5.266	10.73	2.34	1.60
	30.76	25.36	67.65	0.00	0.0617	10.73	472.3	393.81	0.0451	310.5	5.588	11.39	3.18	1.60
	31.76	25.36	67.65	-0.00	0.0617	10.75	473.0	394.41	0.0451	307.7	5.538	11.29	3.05	1.60
	32.76	25.38	67.65	-0.00	0.0615	10.73	472.1	393.63	0.0444	308.1	5.545	11.30	3.07	1.60
	33.76	25.36	67.65	-0.00	0.0616	10.74	472.4	393.86	0.0451	310.2	5.584	11.38	3.17	1.60
	34.74	25.42	67.65	0.00	0.0618	10.75	472.9	394.33	0.0463	318.4	5.732	11.68	3.54	1.60
	35.76	25.36	67.67	0.00	0.0617	10.74	472.7	393.96	0.0459	323.6	5.824	11.87	3.76	1.60
	36.74	25.36	67.65	0.00	0.0617	10.73	472.2	393.68	0.0463	324.8	5.847	11.92	3.82	1.60
	37.77	25.36	67.65	-0.00	0.0616	10.73	472.2	393.69	0.0469	328.7	5.916	12.06	3.98	1.60
	38.75	25.38	67.65	-0.00	0.0615	10.72	471.7	393.30	0.0475	334.6	6.023	12.28	4.24	1.60
	39.78	25.39	67.65	-0.00	0.0616	10.71	471.5	393.12	0.0484	345.8	6.224	12.69	4.71	1.60
	40.76	25.40	67.65	-0.00	0.0616	10.71	471.3	392.98	0.0478	338.0	6.084	12.40	4.39	1.60
	41.78	25.40	67.65	-0.00	0.0615	10.72	471.6	393.25	0.0488	344.7	6.204	12.65	4.66	1.60
	42.76	25.38	67.68	0.00	0.0616	10.73	472.1	393.51	0.0489	346.3	6.234	12.70	4.73	1.60
	43.74	25.34	67.65	0.00	0.0615	10.71	471.3	392.89	0.0481	342.3	6.162	12.56	4.56	1.60
	44.76	25.30	67.65	0.00	0.0616	10.73	472.2	393.64	0.0479	340.0	6.120	12.47	4.46	1.60
	45.76	25.32	67.65	0.00	0.0616	10.74	472.5	393.93	0.0485	343.6	6.185	12.60	4.62	1.60
	46.77	25.29	67.65	-0.00	0.0614	10.69	470.4	392.10	0.0479	340.6	6.130	12.49	4.49	1.60
	47.83	25.27	67.65	0.00	0.0614	10.69	470.2	391.90	0.0484	342.6	6.167	12.57	4.57	1.60
	48.75	25.25	67.65	0.00	0.0615	10.71	471.2	392.75	0.0484	340.2	6.124	12.48	4.47	1.60
	49.75	25.27	67.65	0.00	0.0615	10.70	470.8	392.44	0.0487	344.8	6.206	12.65	4.66	1.60
	50.75	25.27	67.65	0.00	0.0615	10.70	471.0	392.57	0.0486	346.5	6.238	12.71	4.73	1.60
	51.75	25.29	67.65	0.00	0.0615	10.69	470.3	391.99	0.0492	350.3	6.305	12.85	4.89	1.60
	52.76	25.29	67.65	-0.00	0.0616	10.71	471.3	392.89	0.0494	350.6	6.310	12.86	4.90	1.60
	53.74	25.29	67.65	0.00	0.0616	10.72	471.5	393.04	0.0491	349.2	6.286	12.81	4.85	1.60
	54.74	25.31	67.68	0.00	0.0617	10.72	471.8	393.19	0.0494	351.0	6.319	12.87	4.92	1.60
	55.76	25.34	67.65	-0.00	0.0618	10.74	472.6	394.01	0.0492	348.5	6.272	12.78	4.82	1.60
	56.77	25.37	67.65	-0.00	0.0615	10.69	470.5	392.28	0.0501	357.8	6.440	13.12	5.20	1.60
	57.77	25.34	67.65	-0.00	0.0616	10.69	470.5	392.24	0.0502	360.3	6.486	13.22	5.30	1.60
	58.77	25.34	67.65	0.00	0.0616	10.71	471.2	392.89	0.0504	360.9	6.496	13.24	5.32	1.60
	59.75	25.34	67.65	0.00	0.0616	10.70	470.8	392.46	0.0500	358.5	6.453	13.15	5.23	1.60
	60.75	25.33	67.65	0.00	0.0616	10.71	471.0	392.70	0.0501	357.6	6.436	13.12	5.19	1.60
	61.76	25.33	67.65	-0.00	0.0616	10.71	471.2	392.84	0.0500	359.0	6.461	13.17	5.24	1.60
	62.74	25.30	67.65	0.00	0.0615	10.68	470.0	391.77	0.0501	360.1	6.482	13.21	5.29	1.60
	63.74	25.34	67.65	0.00	0.0614	10.68	470.1	391.95	0.0500	358.4	6.452	13.15	5.22	1.60
	64.74	25.34	67.63	0.00	0.0613	10.69	470.4	392.31	0.0500	360.3	6.485	13.22	5.30	1.60
	65.75	25.37	67.68	0.00	0.0614	10.70	470.7	392.32	0.0503	358.5	6.453	13.15	5.23	1.60
	66.75	25.33	67.65	-0.00	0.0615	10.70	470.9	392.54	0.0505	363.1	6.535	13.32	5.41	1.60
	67.75	25.33	67.65	0.00	0.0616	10.70	470.7	392.39	0.0510	366.8	6.603	13.46	5.55	1.60
	68.75	25.36	67.65	-0.00	0.0616	10.70	470.8	392.52	0.0509	366.3	6.593	13.44	5.54	1.60
	69.78	25.31	67.65	-0.00	0.0615	10.70	470.7	392.38	0.0508	369.5	6.650	13.55	5.66	1.60
	70.75	25.33	67.65	0.00	0.0614	10.70	470.6	392.34	0.0510	367.7	6.619	13.49	5.59	1.60
	71.75	25.30	67.65	-0.00	0.0614	10.70	470.7	392.39	0.0512	370.3	6.666	13.58	5.69	1.60
	72.76	25.29	67.65	0.00	0.0614	10.69	470.4	392.10	0.0512	370.4	6.667	13.58	5.69	1.60
	73.76	25.25	67.65	-0.00	0.0614	10.69	470.5	392.15	0.0513	370.9	6.676	13.60	5.71	1.60
	74.77	25.25	67.65	-0.00	0.0613	10.68	470.1	391.81	0.0514	373.2	6.718	13.69	5.80	1.60
	75.74	25.24	67.68	0.00	0.0614	10.69	470.5	391.98	0.0518	375.7	6.762	13.77	5.89	1.60
	76.75	25.22	67.65	0.00	0.0615	10.70	470.6	392.19	0.0521	377.4	6.794	13.84	5.96	1.60
	77.77	25.22	67.65	-0.00	0.0614	10.69	470.3	391.91	0.0518	376.4	6.776	13.80	5.92	1.60
	78.77	25.24	67.65	-0.00	0.0614	10.71	471.4	392.87	0.0522	379.6	6.833	13.92	6.05	1.60
	79.75	25.25	67.65	-0.00	0.0615	10.70	470.8	392.37	0.0523	380.9	6.855	13.97	6.09	1.60
	80.76	25.23	67.63	-0.00	0.0616	10.70	470.8	392.46	0.0523	380.7	6.852	13.96	6.08	1.60
	81.75	25.24	67.68	0.00	0.0616	10.69	470.3	391.79	0.0522	381.2	6.862	13.97	6.11	1.60
	82.74	25.25	67.65	0.00	0.0616	10.70	470.8	392.42	0.0525	381.4	6.865	13.99	6.11	1.60
	83.82	25.24	67.67	-0.00	0.0616	10.69	470.4	391.95	0.0525	383.8	6.908	14.07	6.20	1.60
	84.82	25.25	67.65	0.00	0.0616	10.69	470.4	392.06	0.0527	384.2	6.915	14.09	6.22	1.60
	85.75	25.30	67.65	-0.00	0.0616	10.71	471.3	392.91	0.0530	387.5	6.975	14.21	6.35	1.60
	86.83	25.32	67.65	0.00	0.0616	10.69	470.5	392.20	0.0530	388.8	6.998	14.26	6.40	1.61
	87.77	25.34	67.65	-0.00	0.0616	10.69	470.6	392.33	0.0530	388.0	6.984	14.23	6.37	1.60
	88.77	25.34	67.65	-0.00	0.0616	10.72	471.5	393.07	0.0529	386.3	6.953	14.17	6.30	1.60
	89.75	25.35	67.65	0.00	0.0615	10.71	471.1	392.78	0.0533	391.0	7.037	14.34	6.48	1.60
	90.75	25.33	67.65	0.00	0.0615	10.71	471.4	393.02	0.0531	389.8	7.016	14.30	6.43	1.61
	91.74	25.33	67.65	0.00	0.0613	10.69	470.2	392.03	0.0531	391.0	7.038	14.34	6.48	1.60
	92.76	25.36	67.65	-0.00	0.0614	10.69	470.2	392.05	0.0532	392.5	7.065	14.40	6.54	1.61
	93.76	25.36	67.65	-0.00	0.0615	10.69	470.4	392.17	0.0536	395.2	7.113	14.50	6.63	1.60
	94.75	25.40	67.65	-0.00	0.0617	10.71	471.1	392.84	0.0535	394.2	7.096	14.46	6.60	1.60
	95.75	25.41	67.65	0.00	0.0616	10.73	472.2	393.81	0.0536	392.1	7.058	14.39	6.52	1.61
	96.75	25.41	67.65	-0.00	0.0615	10.73	472.0	393.62	0.0537	396.8	7.142	14.56	6.70	1.61
	97.75	25.43	67.67	-0.00	0.0615	10.68	469.9	391.77	0.0536	395.5	7.118	14.51	6.65	1.61
	98.75	25.44	67.65	0.00	0.0616	10.71	471.2	392.99	0.0537	394.8	7.106	14.49	6.62	1.61
	99.76	25.40	67.65	0.00	0.0614	10.71	471.4	393.13	0.0537	395.3	7.116	14.50	6.64	1.61
	100.76	25.36	67.65	0.00	0.0615	10.73	472.0	393.59	0.0541	400.2	7.203	14.68	6.82	1.61
	101.74	25.34	67.65	0.00	0.0616	10.71	471.4	393.03	0.0541	399.1	7.184	14.64	6.78	1.61
	102.74	25.38	67.65	0.00	0.0615	10.70	470.6	392.41	0.0540	398.8	7.179	14.63	6.77	1.61
	103.74	25.36	67.65	0.00	0.0615	10.71	471.2	392.87	0.0540	398.6	7.175	14.62	6.76	1.61
	104.75	25.33	67.68	0.00	0.0614	10.68	470.1	391.76	0.0541	399.6	7.193	14.65	6.80	1.61
	105.75	25.33	67.65	-0.00	0.0614	10.65	468.8	390.82	0.0535	392.5	7.066	14.40	6.53	1.61
	106.83	25.33	67.65	-0.00	0.0615	10.70	470.6	392.33	0.0540	398.6	7.175	14.62	6.76	1.61
	107.75	25.33	67.68	-0.00	0.0614	10.71	471.3	392.76	0.0542	402.7	7.249	14.77	6.91	1.61
	108.76	25.33	67.65	-0.00	0.0617	10.70	470.9	392.55	0.0538	395.7	7.123	14.51	6.65	1.61
	109.73	25.27	67.65	0.00	0.0616	10.71	471.5	392.97	0.0537	398.1	7.167	14.60	6.74	1.61
	110.78	25.25	67.65	-0.00	0.0614	10.68	470.1	391.79	0.0537	394.5	7.102	14.47	6.60	1.61
	111.76	25.25	67.65	0.00	0.0615	10.70	470.9	392.48	0.0546	405.4	7.297	14.87	7.00	1.61
	112.77	25.25	67.63	0.00	0.0617	10.72	471.5	393.09	0.0547	405.9	7.306	14.89	7.02	1.61
	113.76	25.27	67.65	0.00	0.0615	10.70	470.6	392.30	0.0545	401.2	7.222	14.71	6.85	1.61
	114.74	25.25	67.63	0.00	0.0616	10.72	471.7	393.26	0.0546	406.3	7.313	14.90	7.03	1.61
	115.77	25.25	67.65	0.00	0.0616	10.72	471.5	392.96	0.0546	404.9	7.288	14.85	6.98	1.61
	116.75	25.27	67.62	-0.00	0.0615	10.70	470.9	392.62	0.0544	399.9	7.199	14.67	6.80	1.61
	117.77	25.33	67.65	-0.00	0.0614	10.69	470.5	392.21	0.0546	405.9	7.307	14.89	7.02	1.61
	118.81	25.35	67.67	0.00	0.0615	10.68	470.1	391.78	0.0546	405.7	7.303	14.88	7.02	1.61
