Jul 28 2015 at 10:00:44
Frequency: 1.00Hz.
CO2
Zero:  Value:0.95  Date:18 Mar 2005	 at 07:22:33	
Span:  Value:1.00  Date:18 Mar 2005	 at 07:25:09	
H2O
Zero:  Value:0.71  Date:18 Mar 2005	 at 07:52:31	
Span:  Value:0.99  Date:18 Mar 2005	 at 11:44:01	
	Relative Time	Temperature	Pressure	Aux Input	CO2 Absorptance	CO2 mmol/m3	CO2 mg/m3	CO2 umol/mol	H2O Absorptance	H2O mmol/m3	H2O g/m3	H2O mmol/mol	H2O(°C)	Cooler Voltage
	0.06	19.56	67.65	-0.00	0.0574	9.81	431.6	352.83	0.0662	535.4	9.637	19.26	10.83	1.52
	1.12	19.58	67.62	0.00	0.0580	9.90	435.8	356.47	0.0645	516.0	9.289	18.57	10.28	1.52
	2.06	19.58	67.65	-0.00	0.0580	9.91	436.2	356.68	0.0645	510.6	9.191	18.37	10.12	1.52
	3.06	19.58	67.65	-0.00	0.0582	9.95	437.7	357.84	0.0633	501.7	9.030	18.05	9.86	1.52
	4.04	19.58	67.65	0.00	0.0583	9.98	439.1	359.02	0.0628	492.4	8.863	17.71	9.58	1.52
	5.04	19.58	67.65	0.00	0.0584	9.99	439.7	359.55	0.0620	485.0	8.730	17.45	9.36	1.52
	6.04	19.58	67.65	0.00	0.0581	9.97	438.5	358.55	0.0630	491.2	8.842	17.67	9.55	1.52
	7.05	19.60	67.62	0.00	0.0581	9.96	438.2	358.40	0.0629	495.7	8.922	17.84	9.68	1.52
	8.03	19.60	67.63	0.00	0.0580	9.96	438.4	358.61	0.0630	494.2	8.896	17.79	9.64	1.52
	9.06	19.61	67.65	0.00	0.0582	9.96	438.3	358.37	0.0623	493.3	8.879	17.75	9.61	1.52
	10.05	19.61	67.65	-0.00	0.0583	9.99	439.7	359.53	0.0620	483.2	8.698	17.39	9.30	1.52
	11.04	19.61	67.65	0.00	0.0586	10.04	441.7	361.16	0.0609	470.2	8.463	16.92	8.90	1.52
	12.06	19.61	67.65	-0.00	0.0589	10.08	443.7	362.80	0.0601	464.6	8.363	16.72	8.72	1.52
	13.03	19.61	67.60	0.00	0.0587	10.07	443.0	362.52	0.0609	470.5	8.469	16.94	8.91	1.52
	14.07	19.61	67.67	-0.00	0.0587	10.05	442.2	361.48	0.0608	472.3	8.501	16.99	8.96	1.52
	15.05	19.63	67.65	0.00	0.0586	10.05	442.2	361.57	0.0610	471.4	8.484	16.96	8.94	1.52
	16.05	19.63	67.62	0.00	0.0587	10.06	442.8	362.27	0.0610	473.7	8.526	17.05	9.01	1.52
	17.05	19.61	67.65	-0.00	0.0589	10.08	443.7	362.79	0.0608	471.2	8.481	16.95	8.93	1.52
	18.07	19.63	67.65	-0.00	0.0591	10.14	446.3	364.94	0.0602	466.4	8.396	16.78	8.78	1.52
	19.05	19.63	67.62	0.00	0.0592	10.15	446.4	365.19	0.0601	464.4	8.359	16.72	8.72	1.52
	20.05	19.63	67.66	0.00	0.0592	10.15	446.6	365.22	0.0602	465.9	8.386	16.76	8.76	1.52
	21.05	19.65	67.65	0.00	0.0591	10.15	446.6	365.20	0.0598	461.0	8.298	16.59	8.61	1.52
	22.04	19.63	67.65	0.00	0.0590	10.13	445.8	364.53	0.0598	458.9	8.261	16.51	8.54	1.52
	23.06	19.61	67.65	-0.00	0.0589	10.10	444.4	363.39	0.0595	457.4	8.234	16.46	8.49	1.52
	24.13	19.63	67.65	-0.00	0.0590	10.12	445.4	364.27	0.0591	453.1	8.155	16.30	8.35	1.52
	25.04	19.63	67.65	0.00	0.0591	10.14	446.2	364.89	0.0594	454.5	8.181	16.35	8.40	1.52
	26.05	19.63	67.65	-0.00	0.0592	10.16	446.9	365.48	0.0594	456.2	8.212	16.42	8.45	1.52
	27.05	19.64	67.62	-0.00	0.0591	10.14	446.2	365.04	0.0592	454.3	8.178	16.35	8.39	1.52
	28.07	19.65	67.65	-0.00	0.0591	10.14	446.4	365.04	0.0591	453.8	8.168	16.33	8.37	1.52
	29.06	19.65	67.65	-0.00	0.0590	10.16	447.0	365.58	0.0591	453.8	8.168	16.33	8.37	1.52
	30.05	19.65	67.65	-0.00	0.0590	10.16	446.9	365.49	0.0592	455.5	8.200	16.39	8.43	1.53
	31.06	19.65	67.63	0.00	0.0589	10.14	446.3	365.14	0.0594	456.9	8.223	16.44	8.47	1.52
	32.06	19.63	67.67	-0.00	0.0589	10.12	445.4	364.14	0.0595	456.8	8.222	16.43	8.47	1.52
	33.13	19.65	67.62	-0.00	0.0589	10.13	445.9	364.84	0.0597	458.0	8.245	16.49	8.51	1.52
	34.04	19.65	67.63	0.00	0.0588	10.13	445.5	364.49	0.0599	459.1	8.263	16.52	8.55	1.52
	35.07	19.65	67.65	-0.00	0.0588	10.13	445.6	364.44	0.0598	460.0	8.280	16.55	8.58	1.52
	36.11	19.68	67.65	0.00	0.0589	10.13	445.8	364.59	0.0600	462.7	8.329	16.65	8.66	1.53
	37.07	19.66	67.65	-0.00	0.0589	10.12	445.3	364.19	0.0601	462.4	8.323	16.64	8.65	1.52
	38.05	19.64	67.65	0.00	0.0589	10.11	444.7	363.68	0.0600	463.0	8.335	16.66	8.67	1.52
	39.05	19.63	67.63	-0.00	0.0588	10.10	444.5	363.55	0.0602	460.1	8.282	16.56	8.58	1.52
	40.05	19.66	67.65	-0.00	0.0587	10.09	444.0	363.10	0.0607	473.4	8.521	17.04	9.00	1.52
	41.06	19.68	67.65	-0.00	0.0588	10.09	443.8	362.98	0.0599	462.8	8.330	16.65	8.67	1.52
	42.06	19.63	67.62	-0.00	0.0588	10.08	443.6	362.93	0.0614	471.9	8.494	16.99	8.95	1.52
	43.04	19.68	67.62	0.00	0.0587	10.08	443.4	362.80	0.0610	473.6	8.525	17.05	9.01	1.52
	44.05	19.68	67.65	0.00	0.0587	10.08	443.5	362.73	0.0610	474.1	8.534	17.06	9.02	1.52
	45.05	19.66	67.63	-0.00	0.0586	10.06	442.8	362.29	0.0606	469.4	8.449	16.90	8.87	1.52
	46.07	19.70	67.65	-0.00	0.0587	10.08	443.6	362.85	0.0605	468.6	8.435	16.86	8.85	1.52
	47.05	19.70	67.63	-0.00	0.0586	10.06	442.5	362.06	0.0608	469.6	8.452	16.91	8.88	1.52
	48.05	19.68	67.65	0.00	0.0585	10.04	441.9	361.47	0.0612	476.1	8.570	17.13	9.09	1.52
	49.05	19.70	67.65	0.00	0.0584	10.05	442.2	361.67	0.0617	482.5	8.686	17.37	9.29	1.52
	50.06	19.68	67.65	-0.00	0.0584	10.04	441.6	361.22	0.0620	485.2	8.734	17.46	9.37	1.52
	51.06	19.68	67.65	-0.00	0.0585	10.05	442.1	361.54	0.0618	482.7	8.688	17.37	9.29	1.52
	52.06	19.69	67.63	-0.00	0.0585	10.05	442.4	361.97	0.0618	481.6	8.669	17.34	9.26	1.52
	53.07	19.70	67.65	-0.00	0.0583	10.04	441.7	361.26	0.0622	486.7	8.760	17.52	9.41	1.52
	54.12	19.71	67.65	0.00	0.0584	10.03	441.2	360.90	0.0625	491.0	8.838	17.67	9.55	1.52
	55.05	19.71	67.62	-0.00	0.0584	10.03	441.1	361.00	0.0623	489.4	8.810	17.62	9.50	1.52
	56.05	19.71	67.65	-0.00	0.0584	10.02	441.0	360.73	0.0621	487.0	8.767	17.53	9.43	1.52
	57.03	19.73	67.65	0.00	0.0584	10.02	440.7	360.49	0.0623	488.8	8.799	17.59	9.48	1.52
	58.05	19.75	67.62	0.00	0.0583	10.01	440.6	360.61	0.0625	490.6	8.831	17.67	9.54	1.52
	59.05	19.73	67.63	-0.00	0.0583	10.01	440.4	360.41	0.0623	489.7	8.814	17.63	9.51	1.53
	60.05	19.71	67.65	0.00	0.0582	10.00	440.2	360.05	0.0625	491.5	8.847	17.69	9.56	1.52
	61.11	19.73	67.63	0.00	0.0583	10.00	440.0	360.10	0.0626	492.1	8.858	17.72	9.58	1.52
	62.06	19.75	67.65	0.00	0.0582	9.98	439.3	359.41	0.0624	490.7	8.833	17.66	9.54	1.52
	63.06	19.73	67.65	-0.00	0.0583	9.98	439.2	359.28	0.0625	491.2	8.841	17.68	9.55	1.52
	64.05	19.73	67.65	-0.00	0.0585	10.00	440.1	360.03	0.0623	487.9	8.783	17.56	9.45	1.52
	65.05	19.74	67.63	0.00	0.0585	10.01	440.4	360.41	0.0624	488.4	8.791	17.59	9.47	1.52
	66.05	19.75	67.65	-0.00	0.0585	10.02	440.8	360.58	0.0625	490.0	8.819	17.64	9.52	1.53
	67.05	19.74	67.62	0.00	0.0584	10.02	440.7	360.71	0.0623	489.8	8.816	17.64	9.51	1.52
	68.05	19.75	67.65	-0.00	0.0583	10.02	440.7	360.53	0.0625	490.8	8.835	17.67	9.54	1.52
	69.06	19.76	67.62	-0.00	0.0582	10.00	440.0	360.13	0.0628	492.6	8.867	17.74	9.60	1.53
	70.05	19.76	67.68	-0.00	0.0580	9.95	437.8	358.06	0.0639	504.8	9.087	18.17	9.96	1.53
	71.03	19.76	67.65	0.00	0.0579	9.92	436.6	357.20	0.0639	507.0	9.125	18.25	10.03	1.53
	72.06	19.74	67.65	-0.00	0.0582	9.95	437.8	358.17	0.0639	506.7	9.121	18.24	10.02	1.53
	73.04	19.76	67.65	0.00	0.0581	9.93	437.1	357.64	0.0647	515.0	9.270	18.54	10.26	1.53
	74.13	19.78	67.65	-0.00	0.0581	9.93	437.1	357.62	0.0642	506.2	9.112	18.22	10.00	1.53
	75.05	19.78	67.65	-0.00	0.0581	9.93	437.1	357.57	0.0638	506.5	9.118	18.23	10.01	1.53
	76.07	19.78	67.65	0.00	0.0580	9.94	437.4	357.84	0.0634	502.5	9.045	18.09	9.89	1.53
	77.13	19.78	67.65	0.00	0.0579	9.93	436.8	357.37	0.0636	503.9	9.070	18.14	9.93	1.53
	78.05	19.78	67.62	0.00	0.0579	9.92	436.6	357.32	0.0643	509.7	9.175	18.36	10.11	1.53
	79.05	19.76	67.60	-0.00	0.0580	9.92	436.6	357.50	0.0644	513.2	9.238	18.49	10.21	1.53
	80.06	19.78	67.65	-0.00	0.0580	9.92	436.6	357.22	0.0643	512.0	9.217	18.43	10.18	1.53
	81.04	19.80	67.62	0.00	0.0581	9.91	435.8	356.74	0.0642	511.2	9.202	18.41	10.15	1.53
	82.04	19.80	67.62	0.00	0.0580	9.90	435.8	356.70	0.0642	514.0	9.251	18.51	10.23	1.53
	83.06	19.79	67.65	-0.00	0.0579	9.89	435.3	356.18	0.0650	518.3	9.330	18.66	10.36	1.53
	84.05	19.80	67.60	0.00	0.0579	9.89	435.0	356.15	0.0651	521.4	9.385	18.78	10.45	1.53
	85.04	19.79	67.65	0.00	0.0580	9.90	435.5	356.36	0.0643	512.8	9.231	18.46	10.20	1.53
	86.05	19.81	67.65	-0.00	0.0580	9.90	435.6	356.48	0.0645	512.5	9.225	18.45	10.19	1.53
	87.05	19.81	67.62	0.00	0.0577	9.87	434.4	355.57	0.0662	528.5	9.513	19.04	10.65	1.53
	88.05	19.81	67.65	0.00	0.0577	9.88	434.6	355.63	0.0663	536.1	9.649	19.30	10.86	1.53
	89.05	19.79	67.60	0.00	0.0577	9.86	433.9	355.27	0.0659	531.0	9.558	19.13	10.72	1.53
	90.04	19.79	67.65	0.00	0.0580	9.87	434.2	355.29	0.0653	528.3	9.509	19.02	10.64	1.53
	91.04	19.79	67.63	0.00	0.0581	9.94	437.5	358.10	0.0641	507.6	9.138	18.28	10.05	1.53
	92.06	19.85	67.60	-0.00	0.0582	9.94	437.4	358.24	0.0633	504.5	9.080	18.18	9.96	1.53
	93.06	19.83	67.63	-0.00	0.0578	9.89	435.0	356.06	0.0659	526.4	9.476	18.96	10.59	1.53
	94.05	19.83	67.65	-0.00	0.0576	9.89	435.0	355.94	0.0654	525.2	9.453	18.91	10.56	1.53
	95.05	19.83	67.63	-0.00	0.0578	9.89	435.3	356.34	0.0656	526.5	9.477	18.96	10.59	1.53
	96.03	19.85	67.63	0.00	0.0580	9.92	436.4	357.27	0.0645	512.6	9.227	18.46	10.20	1.53
	97.05	19.85	67.63	0.00	0.0580	9.89	435.3	356.40	0.0652	522.5	9.404	18.82	10.48	1.53
	98.05	19.88	67.65	-0.00	0.0579	9.92	436.3	357.09	0.0645	514.4	9.259	18.52	10.25	1.53
	99.06	19.86	67.65	-0.00	0.0578	9.90	435.5	356.46	0.0654	522.5	9.405	18.82	10.48	1.53
	100.04	19.88	67.65	-0.00	0.0580	9.91	435.9	356.72	0.0650	519.7	9.354	18.71	10.40	1.53
	101.06	19.86	67.62	0.00	0.0576	9.88	434.7	355.89	0.0659	529.0	9.522	19.06	10.67	1.53
	102.06	19.88	67.65	-0.00	0.0579	9.88	434.6	355.69	0.0657	528.8	9.518	19.04	10.66	1.53
	103.04	19.88	67.65	0.00	0.0580	9.91	436.0	356.82	0.0664	533.6	9.605	19.22	10.80	1.53
	104.05	19.88	67.63	-0.00	0.0579	9.92	436.5	357.36	0.0665	538.9	9.699	19.41	10.95	1.53
	105.05	19.88	67.65	-0.00	0.0579	9.92	436.7	357.42	0.0668	541.9	9.754	19.51	11.03	1.53
	106.03	19.88	67.65	0.00	0.0578	9.90	435.8	356.66	0.0652	523.5	9.423	18.85	10.51	1.53
	107.11	19.88	67.62	0.00	0.0578	9.89	435.0	356.18	0.0658	529.0	9.522	19.06	10.67	1.53
	108.03	19.88	67.65	0.00	0.0579	9.89	435.2	356.19	0.0661	532.9	9.592	19.19	10.78	1.53
	109.03	19.90	67.65	0.00	0.0578	9.88	434.5	355.64	0.0657	527.2	9.489	18.99	10.62	1.53
	110.04	19.90	67.62	0.00	0.0577	9.89	435.2	356.37	0.0660	531.1	9.560	19.14	10.73	1.53
	111.06	19.90	67.65	-0.00	0.0579	9.90	435.4	356.42	0.0659	527.4	9.492	18.99	10.62	1.53
	112.04	19.91	67.62	0.00	0.0580	9.89	435.3	356.49	0.0655	530.3	9.546	19.11	10.71	1.53
	113.05	19.90	67.65	0.00	0.0580	9.90	435.5	356.50	0.0659	526.7	9.480	18.97	10.60	1.53
	114.05	19.91	67.65	-0.00	0.0578	9.90	435.5	356.46	0.0660	530.2	9.544	19.10	10.71	1.53
	115.05	19.90	67.65	0.00	0.0579	9.90	435.8	356.73	0.0658	529.2	9.526	19.06	10.68	1.53
	116.05	19.93	67.63	-0.00	0.0580	9.89	435.1	356.24	0.0663	534.5	9.622	19.26	10.83	1.53
	117.05	19.93	67.65	0.00	0.0578	9.88	434.9	355.97	0.0666	540.0	9.721	19.45	10.98	1.53
	118.05	19.90	67.62	0.00	0.0577	9.89	435.2	356.36	0.0667	537.8	9.681	19.38	10.92	1.53
	119.05	19.91	67.65	0.00	0.0578	9.87	434.5	355.66	0.0667	539.4	9.709	19.43	10.96	1.53
	120.04	19.91	67.62	0.00	0.0580	9.89	435.0	356.20	0.0664	537.0	9.665	19.35	10.90	1.53
	121.04	19.93	67.63	-0.00	0.0579	9.88	434.6	355.85	0.0669	539.5	9.710	19.44	10.97	1.53
	122.04	19.93	67.65	0.00	0.0578	9.86	433.7	355.05	0.0671	543.9	9.790	19.59	11.09	1.53
