Jul 28 2015 at 13:55:04
Frequency: 1.00Hz.
CO2
Zero:  Value:0.95  Date:18 Mar 2005	 at 07:22:33	
Span:  Value:1.00  Date:18 Mar 2005	 at 07:25:09	
H2O
Zero:  Value:0.71  Date:18 Mar 2005	 at 07:52:31	
Span:  Value:0.99  Date:18 Mar 2005	 at 11:44:01	
	Relative Time	Temperature	Pressure	Aux Input	CO2 Absorptance	CO2 mmol/m3	CO2 mg/m3	CO2 umol/mol	H2O Absorptance	H2O mmol/m3	H2O g/m3	H2O mmol/mol	H2O(°C)	Cooler Voltage
	1.00	31.60	67.70	-0.00	0.0621	10.82	476.2	405.03	0.0430	294.3	5.297	11.01	2.71	1.57
	2.06	31.60	67.67	0.00	0.0621	10.84	477.1	406.00	0.0429	293.3	5.280	10.98	2.67	1.57
	2.98	31.61	67.68	0.00	0.0619	10.81	475.9	404.91	0.0422	286.5	5.157	10.73	2.34	1.57
	4.01	31.60	67.65	-0.00	0.0620	10.83	476.6	405.67	0.0424	286.6	5.159	10.73	2.34	1.57
	4.98	31.57	67.65	0.00	0.0620	10.82	476.0	405.15	0.0427	288.4	5.190	10.80	2.42	1.57
	5.97	31.59	67.68	-0.00	0.0619	10.80	475.2	404.28	0.0429	291.8	5.252	10.92	2.59	1.57
	6.99	31.59	67.68	-0.00	0.0619	10.80	475.2	404.34	0.0431	293.5	5.283	10.99	2.67	1.57
	8.07	31.59	67.70	-0.00	0.0619	10.79	474.7	403.80	0.0430	293.0	5.273	10.96	2.65	1.57
	9.00	31.57	67.68	-0.00	0.0619	10.79	474.8	403.97	0.0429	291.7	5.251	10.92	2.59	1.57
	9.98	31.62	67.70	0.00	0.0617	10.76	473.5	402.80	0.0427	289.7	5.214	10.84	2.49	1.57
	10.98	31.57	67.65	0.00	0.0616	10.74	472.5	402.11	0.0428	290.7	5.233	10.89	2.54	1.57
	12.01	31.58	67.68	-0.00	0.0615	10.71	471.1	400.85	0.0428	289.9	5.219	10.85	2.50	1.57
	12.99	31.57	67.68	-0.00	0.0614	10.68	470.1	399.93	0.0427	288.4	5.191	10.80	2.43	1.57
	13.98	31.53	67.62	0.00	0.0614	10.68	469.8	399.92	0.0430	291.1	5.239	10.90	2.55	1.57
	15.05	31.57	67.67	0.00	0.0613	10.67	469.5	399.43	0.0433	294.8	5.307	11.04	2.74	1.57
	16.01	31.58	67.70	-0.00	0.0613	10.66	468.9	398.82	0.0433	294.3	5.297	11.01	2.71	1.57
	17.00	31.56	67.70	0.00	0.0612	10.64	468.3	398.23	0.0436	296.1	5.330	11.08	2.80	1.57
	17.97	31.59	67.68	0.00	0.0613	10.65	468.7	398.75	0.0436	299.0	5.383	11.19	2.94	1.57
	19.00	31.61	67.68	0.00	0.0613	10.66	468.8	398.94	0.0441	302.2	5.440	11.31	3.09	1.57
	19.98	31.60	67.68	0.00	0.0613	10.65	468.7	398.80	0.0439	302.0	5.437	11.31	3.08	1.57
	20.98	31.66	67.68	0.00	0.0612	10.62	467.2	397.64	0.0453	310.8	5.594	11.64	3.49	1.57
	22.00	31.64	67.68	-0.00	0.0612	10.64	467.9	398.21	0.0456	316.4	5.696	11.85	3.74	1.57
	23.00	31.61	67.68	-0.00	0.0610	10.61	466.8	397.19	0.0456	313.8	5.648	11.75	3.62	1.57
	23.98	31.65	67.68	0.00	0.0611	10.61	466.9	397.33	0.0463	324.8	5.847	12.16	4.11	1.57
	24.99	31.61	67.68	-0.00	0.0611	10.63	467.6	397.91	0.0461	320.8	5.774	12.01	3.93	1.57
	25.99	31.64	67.68	-0.00	0.0612	10.63	467.9	398.16	0.0465	325.2	5.854	12.18	4.13	1.57
	26.99	31.69	67.72	0.00	0.0611	10.59	466.0	396.37	0.0465	324.2	5.835	12.13	4.09	1.57
	27.97	31.71	67.68	0.00	0.0611	10.60	466.4	397.01	0.0464	324.4	5.840	12.15	4.10	1.57
	28.98	31.76	67.68	0.00	0.0611	10.61	467.0	397.52	0.0458	319.1	5.743	11.95	3.86	1.57
	29.98	31.72	67.68	-0.00	0.0612	10.62	467.2	397.72	0.0459	317.8	5.720	11.90	3.80	1.57
	31.00	31.73	67.65	0.00	0.0612	10.62	467.4	398.00	0.0454	314.9	5.669	11.80	3.68	1.57
	31.98	31.77	67.68	0.00	0.0611	10.62	467.2	397.79	0.0448	308.2	5.548	11.55	3.37	1.57
	32.98	31.73	67.68	0.00	0.0611	10.61	466.9	397.48	0.0449	308.6	5.555	11.56	3.39	1.57
	33.99	31.71	67.70	0.00	0.0611	10.61	466.8	397.25	0.0443	304.4	5.479	11.40	3.19	1.57
	34.98	31.71	67.68	0.00	0.0611	10.62	467.1	397.59	0.0442	302.9	5.452	11.34	3.12	1.57
	35.99	31.74	67.68	-0.00	0.0610	10.60	466.5	397.13	0.0448	306.3	5.513	11.47	3.28	1.57
	36.99	31.71	67.65	0.00	0.0611	10.61	466.8	397.47	0.0461	317.6	5.716	11.90	3.79	1.57
	38.06	31.75	67.65	-0.00	0.0610	10.57	465.0	396.04	0.0499	354.0	6.371	13.26	5.35	1.57
	39.00	31.75	67.68	-0.00	0.0612	10.64	468.1	398.49	0.0493	355.5	6.398	13.31	5.41	1.57
	39.98	31.75	67.68	0.00	0.0611	10.63	467.6	398.02	0.0477	335.4	6.037	12.56	4.57	1.57
	40.98	31.77	67.68	0.00	0.0610	10.60	466.2	396.90	0.0493	352.1	6.337	13.19	5.27	1.57
	42.00	31.75	67.67	-0.00	0.0611	10.62	467.1	397.69	0.0469	330.3	5.945	12.37	4.36	1.57
	42.98	31.75	67.65	0.00	0.0611	10.62	467.3	397.92	0.0484	339.4	6.110	12.72	4.74	1.57
	43.98	31.75	67.65	0.00	0.0612	10.63	467.7	398.25	0.0475	334.1	6.013	12.52	4.52	1.57
	44.99	31.71	67.67	0.00	0.0612	10.63	467.8	398.22	0.0481	335.8	6.044	12.58	4.59	1.57
	45.99	31.68	67.68	0.00	0.0611	10.62	467.1	397.50	0.0484	338.1	6.086	12.66	4.69	1.57
	46.99	31.72	67.68	-0.00	0.0611	10.62	467.1	397.62	0.0490	343.8	6.188	12.88	4.93	1.57
	47.99	31.65	67.68	0.00	0.0611	10.60	466.4	396.92	0.0477	337.9	6.083	12.65	4.68	1.57
	48.98	31.65	67.66	0.00	0.0611	10.61	467.0	397.51	0.0474	337.2	6.070	12.63	4.65	1.57
	49.98	31.66	67.68	0.00	0.0612	10.63	467.8	398.08	0.0474	334.1	6.013	12.51	4.51	1.57
	50.98	31.67	67.70	0.00	0.0611	10.62	467.4	397.70	0.0464	325.2	5.854	12.18	4.13	1.57
	51.98	31.69	67.68	0.00	0.0611	10.62	467.3	397.71	0.0463	322.9	5.812	12.09	4.03	1.57
	52.98	31.69	67.68	-0.00	0.0611	10.61	466.8	397.31	0.0459	317.9	5.722	11.90	3.81	1.57
	53.98	31.73	67.68	0.00	0.0611	10.60	466.3	396.94	0.0458	320.8	5.774	12.02	3.94	1.57
	54.98	31.75	67.68	0.00	0.0611	10.60	466.5	397.15	0.0456	316.1	5.691	11.84	3.73	1.57
	55.99	31.75	67.65	-0.00	0.0611	10.60	466.4	397.19	0.0464	338.6	6.096	12.69	4.71	1.57
	57.07	31.77	67.68	-0.00	0.0611	10.60	466.5	397.13	0.0469	326.4	5.875	12.23	4.19	1.57
	58.00	31.71	67.68	-0.00	0.0611	10.60	466.6	397.14	0.0473	333.0	5.995	12.47	4.47	1.57
	58.98	31.75	67.68	0.00	0.0611	10.61	466.6	397.24	0.0485	337.9	6.082	12.66	4.68	1.57
	59.98	31.84	67.70	0.00	0.0612	10.63	467.9	398.29	0.0499	360.3	6.485	13.49	5.61	1.57
	61.00	31.82	67.68	-0.00	0.0612	10.62	467.2	397.84	0.0494	351.0	6.319	13.15	5.23	1.57
	61.99	31.87	67.65	-0.00	0.0611	10.62	467.3	398.08	0.0498	357.8	6.441	13.41	5.51	1.57
	62.99	31.92	67.70	-0.00	0.0612	10.62	467.1	397.69	0.0503	361.0	6.497	13.52	5.64	1.57
	63.99	31.94	67.68	-0.00	0.0611	10.62	467.3	398.06	0.0503	361.1	6.499	13.53	5.64	1.57
	64.97	31.92	67.65	0.00	0.0611	10.62	467.3	398.19	0.0504	361.1	6.500	13.54	5.64	1.57
	65.99	31.91	67.68	0.00	0.0611	10.62	467.1	397.88	0.0505	361.9	6.514	13.56	5.67	1.57
	66.97	31.91	67.68	0.00	0.0611	10.61	467.1	397.80	0.0505	360.8	6.495	13.52	5.63	1.57
	67.99	31.87	67.68	0.00	0.0611	10.62	467.4	398.03	0.0524	381.3	6.864	14.29	6.43	1.57
	69.00	31.84	67.68	0.00	0.0611	10.62	467.3	397.96	0.0522	382.2	6.880	14.32	6.46	1.57
	69.98	31.84	67.68	-0.00	0.0612	10.62	467.5	398.07	0.0522	380.6	6.851	14.26	6.40	1.57
	70.98	31.81	67.68	0.00	0.0611	10.62	467.3	397.85	0.0514	373.1	6.716	13.98	6.11	1.57
	72.06	31.86	67.68	-0.00	0.0611	10.62	467.1	397.76	0.0511	369.0	6.643	13.83	5.95	1.57
	72.99	31.85	67.70	-0.00	0.0612	10.62	467.3	397.79	0.0515	372.8	6.710	13.96	6.10	1.57
	73.99	31.86	67.68	-0.00	0.0612	10.62	467.4	398.03	0.0514	372.1	6.697	13.94	6.07	1.57
	74.97	31.89	67.68	0.00	0.0612	10.62	467.5	398.13	0.0513	371.5	6.687	13.92	6.05	1.57
	76.00	31.87	67.70	-0.00	0.0612	10.63	467.6	398.10	0.0512	370.4	6.668	13.88	6.01	1.57
	76.99	31.88	67.68	0.00	0.0612	10.63	467.6	398.20	0.0508	366.4	6.595	13.73	5.85	1.57
	77.98	31.94	67.62	0.00	0.0611	10.62	467.4	398.49	0.0508	366.8	6.603	13.76	5.87	1.57
	79.00	31.92	67.68	0.00	0.0611	10.62	467.5	398.16	0.0510	368.3	6.630	13.80	5.93	1.57
	79.98	31.88	67.67	0.00	0.0612	10.63	467.6	398.21	0.0513	371.2	6.681	13.91	6.04	1.57
	81.06	31.84	67.65	0.00	0.0612	10.63	467.9	398.61	0.0516	374.0	6.732	14.02	6.15	1.57
	81.98	31.84	67.70	0.00	0.0612	10.63	467.7	398.12	0.0525	380.8	6.855	14.26	6.41	1.57
	82.99	31.77	67.65	-0.00	0.0612	10.63	467.8	398.40	0.0525	385.4	6.936	14.44	6.58	1.57
	83.99	31.78	67.68	-0.00	0.0612	10.64	468.2	398.65	0.0528	388.3	6.990	14.55	6.69	1.58
	84.99	31.71	67.68	0.00	0.0612	10.65	468.4	398.66	0.0533	390.4	7.027	14.62	6.76	1.57
	85.99	31.67	67.65	-0.00	0.0613	10.65	468.5	398.86	0.0530	390.7	7.033	14.64	6.77	1.57
	86.99	31.67	67.63	0.00	0.0612	10.64	468.0	398.56	0.0533	389.0	7.001	14.58	6.71	1.57
	87.97	31.66	67.65	0.00	0.0612	10.63	467.9	398.38	0.0541	398.6	7.174	14.93	7.06	1.57
	88.98	31.64	67.65	0.00	0.0613	10.64	468.1	398.52	0.0535	395.3	7.115	14.81	6.94	1.57
	89.98	31.70	67.65	0.00	0.0613	10.64	468.2	398.68	0.0543	401.0	7.218	15.02	7.15	1.57
	91.01	31.71	67.65	-0.00	0.0613	10.64	468.3	398.80	0.0549	407.1	7.328	15.25	7.37	1.57
	91.99	31.74	67.70	-0.00	0.0613	10.65	468.6	398.80	0.0548	406.6	7.318	15.22	7.36	1.57
	93.01	31.76	67.68	0.00	0.0613	10.65	468.8	399.10	0.0558	416.6	7.500	15.61	7.72	1.57
	93.97	31.76	67.68	0.00	0.0613	10.66	469.0	399.24	0.0565	422.0	7.597	15.81	7.90	1.57
	95.00	31.71	67.67	-0.00	0.0613	10.65	468.7	398.99	0.0567	427.6	7.696	16.01	8.09	1.57
	95.97	31.69	67.65	0.00	0.0613	10.66	469.0	399.38	0.0569	430.9	7.756	16.14	8.21	1.57
	96.99	31.71	67.68	0.00	0.0613	10.65	468.8	399.00	0.0563	424.1	7.633	15.88	7.97	1.57
	97.98	31.71	67.68	-0.00	0.0612	10.64	468.3	398.63	0.0561	420.1	7.562	15.73	7.83	1.57
	98.98	31.75	67.68	0.00	0.0613	10.65	468.8	399.09	0.0574	434.2	7.816	16.26	8.32	1.57
	99.98	31.82	67.70	0.00	0.0613	10.66	469.0	399.20	0.0571	431.8	7.773	16.17	8.24	1.57
	100.98	31.77	67.68	0.00	0.0613	10.65	468.7	398.99	0.0571	431.4	7.765	16.16	8.23	1.58
	101.99	31.77	67.68	0.00	0.0613	10.65	468.6	398.97	0.0573	434.0	7.813	16.26	8.32	1.57
	102.98	31.76	67.68	0.00	0.0613	10.65	468.6	398.93	0.0572	432.7	7.788	16.21	8.27	1.57
	103.99	31.79	67.67	0.00	0.0613	10.65	468.6	399.01	0.0569	429.2	7.726	16.08	8.15	1.57
	104.97	31.77	67.70	0.00	0.0613	10.66	469.1	399.23	0.0572	431.6	7.769	16.16	8.23	1.58
	106.07	31.79	67.65	-0.00	0.0613	10.66	469.1	399.54	0.0574	434.5	7.820	16.28	8.33	1.57
	106.99	31.77	67.68	0.00	0.0613	10.66	468.9	399.16	0.0574	434.6	7.823	16.28	8.34	1.58
	108.06	31.77	67.67	0.00	0.0613	10.66	469.2	399.44	0.0574	437.4	7.873	16.38	8.43	1.58
	109.00	31.74	67.65	-0.00	0.0613	10.66	468.9	399.34	0.0582	442.7	7.968	16.59	8.61	1.58
	109.98	31.75	67.67	0.00	0.0613	10.66	469.1	399.34	0.0582	443.2	7.978	16.60	8.63	1.58
	111.00	31.74	67.68	0.00	0.0613	10.66	469.0	399.26	0.0587	447.1	8.048	16.75	8.75	1.58
	111.98	31.69	67.70	0.00	0.0613	10.66	469.1	399.15	0.0589	453.9	8.170	16.99	8.97	1.58
	112.98	31.69	67.68	0.00	0.0614	10.67	469.4	399.48	0.0592	454.3	8.178	17.01	8.99	1.58
	113.97	31.71	67.68	0.00	0.0613	10.67	469.3	399.47	0.0590	454.1	8.174	17.01	8.98	1.58
	115.05	31.75	67.68	0.00	0.0614	10.66	469.2	399.40	0.0588	451.0	8.117	16.89	8.88	1.58
	115.97	31.74	67.68	0.00	0.0613	10.66	469.2	399.39	0.0589	451.1	8.120	16.90	8.89	1.57
	116.99	31.75	67.70	-0.00	0.0614	10.67	469.5	399.54	0.0589	452.8	8.150	16.95	8.94	1.58
	117.97	31.76	67.70	0.00	0.0614	10.66	469.0	399.11	0.0581	443.3	7.979	16.60	8.63	1.58
	119.00	31.74	67.68	0.00	0.0614	10.67	469.5	399.64	0.0580	440.5	7.929	16.50	8.53	1.58
	119.98	31.75	67.67	0.00	0.0614	10.68	469.7	399.91	0.0589	448.4	8.071	16.80	8.80	1.58
	121.00	31.73	67.65	0.00	0.0614	10.68	470.1	400.31	0.0592	454.4	8.179	17.03	8.99	1.58
	121.98	31.70	67.68	0.00	0.0613	10.66	469.1	399.26	0.0588	455.3	8.196	17.05	9.02	1.58
	122.98	31.73	67.70	0.00	0.0613	10.66	469.2	399.28	0.0592	449.5	8.091	16.83	8.83	1.58
