Jul 28 2015 at 14:21:45
Frequency: 1.00Hz.
CO2
Zero:  Value:0.95  Date:18 Mar 2005	 at 07:22:33	
Span:  Value:1.00  Date:18 Mar 2005	 at 07:25:09	
H2O
Zero:  Value:0.71  Date:18 Mar 2005	 at 07:52:31	
Span:  Value:0.99  Date:18 Mar 2005	 at 11:44:01	
	Relative Time	Temperature	Pressure	Aux Input	CO2 Absorptance	CO2 mmol/m3	CO2 mg/m3	CO2 umol/mol	H2O Absorptance	H2O mmol/m3	H2O g/m3	H2O mmol/mol	H2O(°C)	Cooler Voltage
	0.09	32.41	67.70	0.00	0.0628	10.99	483.5	412.29	0.0415	280.3	5.046	10.52	2.07	1.61
	1.09	32.40	67.73	0.00	0.0626	10.94	481.5	410.48	0.0417	280.6	5.051	10.53	2.08	1.61
	2.11	32.42	67.72	0.00	0.0624	10.90	479.6	408.90	0.0423	287.3	5.171	10.78	2.41	1.61
	3.10	32.42	67.71	0.00	0.0622	10.86	477.8	407.44	0.0445	302.1	5.438	11.34	3.12	1.61
	4.10	32.43	67.70	0.00	0.0624	10.87	478.5	408.08	0.0451	312.8	5.631	11.74	3.61	1.61
	5.16	32.40	67.72	0.00	0.0625	10.92	480.5	409.66	0.0456	312.8	5.630	11.73	3.61	1.61
	6.10	32.40	67.70	0.00	0.0626	10.92	480.6	409.87	0.0482	331.7	5.970	12.44	4.45	1.61
	7.08	32.45	67.75	0.00	0.0629	10.99	483.8	412.32	0.0485	344.4	6.199	12.92	4.99	1.61
	8.11	32.40	67.73	-0.00	0.0628	10.99	483.5	412.17	0.0482	344.7	6.204	12.93	4.99	1.61
	9.09	32.40	67.73	-0.00	0.0628	10.99	483.7	412.32	0.0483	340.8	6.135	12.78	4.83	1.61
	10.11	32.42	67.73	-0.00	0.0629	11.00	484.2	412.78	0.0488	347.8	6.260	13.04	5.12	1.61
	11.08	32.39	67.72	0.00	0.0629	11.00	484.0	412.64	0.0493	351.4	6.324	13.18	5.27	1.61
	12.11	32.42	67.70	0.00	0.0626	10.93	480.9	410.15	0.0486	344.7	6.205	12.94	5.00	1.61
	13.17	32.41	67.70	0.00	0.0627	10.98	483.2	412.07	0.0494	350.0	6.301	13.13	5.22	1.61
	14.10	32.40	67.70	0.00	0.0624	10.92	480.3	409.55	0.0498	361.0	6.498	13.55	5.66	1.61
	15.10	32.45	67.70	0.00	0.0625	10.94	481.2	410.40	0.0506	363.4	6.542	13.64	5.76	1.61
	16.10	32.41	67.70	0.00	0.0624	10.84	477.2	406.93	0.0491	353.9	6.370	13.28	5.38	1.61
	17.10	32.40	67.72	0.00	0.0622	10.86	478.0	407.52	0.0487	346.5	6.238	13.00	5.07	1.61
	18.10	32.38	67.70	-0.00	0.0620	10.80	475.2	405.24	0.0489	345.9	6.227	12.98	5.05	1.61
	19.17	32.40	67.73	0.00	0.0619	10.80	475.0	404.93	0.0487	348.4	6.272	13.07	5.15	1.61
	20.08	32.39	67.73	0.00	0.0621	10.82	476.2	405.87	0.0505	359.5	6.470	13.48	5.60	1.61
	21.09	32.36	67.70	0.00	0.0620	10.82	475.9	405.76	0.0518	373.4	6.722	14.01	6.15	1.61
	22.09	32.38	67.70	-0.00	0.0620	10.81	475.7	405.67	0.0528	389.5	7.011	14.61	6.76	1.61
	23.10	32.38	67.73	0.00	0.0621	10.83	476.5	406.18	0.0531	389.5	7.011	14.61	6.76	1.61
	24.09	32.43	67.73	0.00	0.0620	10.80	475.1	405.05	0.0516	375.3	6.756	14.08	6.23	1.61
	25.10	32.40	67.73	0.00	0.0621	10.83	476.4	406.15	0.0519	378.0	6.804	14.18	6.33	1.61
	26.10	32.40	67.70	-0.00	0.0621	10.83	476.7	406.51	0.0519	378.8	6.818	14.21	6.36	1.61
	27.11	32.43	67.68	-0.00	0.0621	10.84	476.9	406.85	0.0518	375.8	6.764	14.11	6.24	1.61
	28.16	32.39	67.70	0.00	0.0620	10.81	475.6	405.57	0.0516	375.2	6.754	14.08	6.22	1.61
	29.09	32.43	67.72	0.00	0.0620	10.82	476.1	405.89	0.0527	385.6	6.942	14.47	6.62	1.61
	30.09	32.42	67.73	0.00	0.0620	10.81	475.6	405.44	0.0540	400.0	7.200	15.00	7.15	1.61
	31.11	32.42	67.72	0.00	0.0621	10.82	476.2	405.97	0.0527	381.5	6.866	14.31	6.46	1.61
	32.10	32.42	67.70	-0.00	0.0620	10.81	475.8	405.78	0.0534	394.4	7.099	14.80	6.94	1.61
	33.10	32.42	67.70	-0.00	0.0620	10.81	475.8	405.78	0.0532	389.7	7.015	14.62	6.77	1.61
	34.10	32.47	67.75	-0.00	0.0620	10.81	475.8	405.52	0.0530	390.1	7.022	14.63	6.79	1.61
	35.12	32.45	67.72	-0.00	0.0620	10.80	475.4	405.34	0.0541	396.0	7.127	14.85	7.00	1.61
	36.10	32.42	67.70	0.00	0.0619	10.79	474.6	404.72	0.0544	404.2	7.276	15.17	7.30	1.61
	37.11	32.40	67.68	-0.00	0.0619	10.78	474.5	404.79	0.0547	406.0	7.309	15.24	7.37	1.61
	38.09	32.42	67.72	0.00	0.0618	10.77	473.8	403.93	0.0547	406.6	7.318	15.25	7.39	1.61
	39.09	32.42	67.73	0.00	0.0618	10.76	473.6	403.77	0.0549	407.1	7.329	15.27	7.41	1.61
	40.11	32.40	67.70	-0.00	0.0618	10.76	473.6	403.89	0.0557	414.5	7.461	15.55	7.67	1.61
	41.09	32.39	67.72	0.00	0.0617	10.74	472.7	402.99	0.0560	419.9	7.559	15.75	7.86	1.61
	42.09	32.42	67.70	0.00	0.0617	10.75	473.1	403.51	0.0559	419.5	7.551	15.74	7.85	1.61
	43.09	32.42	67.70	0.00	0.0617	10.74	472.4	402.92	0.0556	416.0	7.488	15.61	7.73	1.61
	44.09	32.40	67.70	0.00	0.0616	10.73	472.2	402.69	0.0586	432.4	7.784	16.23	8.29	1.61
	45.16	32.44	67.75	0.00	0.0616	10.73	471.9	402.24	0.0580	443.7	7.986	16.64	8.67	1.61
	46.08	32.47	67.70	0.00	0.0616	10.72	471.6	402.27	0.0576	434.6	7.823	16.31	8.37	1.61
	47.11	32.43	67.70	0.00	0.0616	10.72	471.5	402.17	0.0581	447.1	8.047	16.78	8.79	1.61
	48.11	32.45	67.73	0.00	0.0615	10.71	471.3	401.78	0.0592	450.4	8.108	16.90	8.90	1.61
	49.11	32.42	67.70	0.00	0.0616	10.71	471.1	401.75	0.0589	451.8	8.133	16.96	8.94	1.61
	50.11	32.45	67.72	-0.00	0.0615	10.70	470.8	401.39	0.0590	453.9	8.170	17.03	9.01	1.61
	51.10	32.47	67.75	0.00	0.0615	10.71	471.0	401.48	0.0585	447.1	8.048	16.77	8.79	1.61
	52.09	32.45	67.70	0.00	0.0616	10.70	470.8	401.52	0.0587	451.6	8.128	16.95	8.93	1.61
	53.10	32.41	67.73	0.00	0.0615	10.68	470.1	400.71	0.0594	458.3	8.250	17.19	9.15	1.61
	54.10	32.42	67.72	-0.00	0.0614	10.68	469.7	400.48	0.0603	466.0	8.388	17.48	9.40	1.61
	55.10	32.42	67.70	0.00	0.0613	10.66	469.3	400.20	0.0602	465.6	8.381	17.47	9.39	1.61
	56.08	32.41	67.73	0.00	0.0613	10.67	469.4	400.13	0.0603	465.1	8.373	17.45	9.37	1.61
	57.10	32.47	67.73	0.00	0.0614	10.67	469.5	400.29	0.0603	465.6	8.380	17.47	9.39	1.61
	58.16	32.47	67.73	0.00	0.0614	10.67	469.4	400.20	0.0615	476.3	8.573	17.87	9.73	1.61
	59.11	32.42	67.73	0.00	0.0613	10.67	469.3	400.07	0.0612	471.3	8.484	17.68	9.57	1.61
	60.09	32.45	67.70	-0.00	0.0614	10.67	469.3	400.26	0.0608	471.3	8.483	17.69	9.57	1.61
	61.10	32.44	67.72	0.00	0.0613	10.66	468.9	399.75	0.0608	473.6	8.525	17.77	9.64	1.61
	62.17	32.47	67.73	0.00	0.0613	10.64	468.3	399.27	0.0615	480.8	8.654	18.04	9.87	1.61
	63.12	32.43	67.72	-0.00	0.0613	10.64	468.2	399.15	0.0620	482.8	8.691	18.11	9.93	1.61
	64.10	32.47	67.72	-0.00	0.0613	10.65	468.7	399.65	0.0613	477.1	8.587	17.90	9.75	1.61
	65.11	32.44	67.73	-0.00	0.0613	10.65	468.6	399.51	0.0618	481.0	8.659	18.05	9.87	1.61
	66.10	32.47	67.72	0.00	0.0612	10.63	467.6	398.75	0.0623	486.1	8.750	18.24	10.03	1.61
	67.11	32.44	67.72	-0.00	0.0612	10.63	467.5	398.62	0.0624	489.5	8.811	18.36	10.13	1.61
	68.09	32.49	67.70	-0.00	0.0612	10.63	467.5	398.81	0.0621	485.1	8.731	18.21	10.00	1.61
	69.09	32.47	67.70	0.00	0.0611	10.62	467.1	398.45	0.0624	486.9	8.764	18.27	10.06	1.61
	70.11	32.44	67.73	-0.00	0.0611	10.61	467.0	398.17	0.0626	492.6	8.866	18.48	10.23	1.61
	71.11	32.47	67.70	-0.00	0.0611	10.60	466.4	397.81	0.0628	494.4	8.899	18.56	10.29	1.61
	72.09	32.51	67.70	0.00	0.0611	10.61	466.8	398.26	0.0631	495.8	8.925	18.61	10.33	1.61
	73.09	32.46	67.70	0.00	0.0611	10.62	467.2	398.53	0.0629	495.5	8.919	18.60	10.32	1.61
	74.10	32.52	67.70	-0.00	0.0611	10.62	467.2	398.56	0.0631	497.4	8.953	18.67	10.38	1.61
	75.10	32.48	67.73	0.00	0.0610	10.60	466.5	397.81	0.0635	508.6	9.155	19.08	10.71	1.61
	76.10	32.47	67.75	0.00	0.0611	10.61	466.7	397.77	0.0639	504.1	9.074	18.91	10.58	1.61
	77.09	32.48	67.70	-0.00	0.0611	10.59	465.8	397.30	0.0643	516.4	9.294	19.38	10.94	1.61
	78.08	32.48	67.72	0.00	0.0611	10.60	466.4	397.70	0.0640	510.0	9.179	19.13	10.75	1.61
	79.17	32.48	67.72	0.00	0.0610	10.58	465.6	397.01	0.0636	501.7	9.030	18.82	10.50	1.61
	80.09	32.51	67.70	0.00	0.0610	10.59	466.0	397.51	0.0641	505.7	9.103	18.98	10.63	1.61
	81.10	32.46	67.70	0.00	0.0609	10.58	465.7	397.18	0.0642	509.7	9.174	19.13	10.74	1.61
	82.10	32.46	67.70	-0.00	0.0611	10.60	466.3	397.75	0.0639	506.9	9.125	19.02	10.66	1.61
	83.10	32.46	67.70	0.00	0.0610	10.60	466.2	397.68	0.0640	506.6	9.120	19.01	10.65	1.61
	84.08	32.49	67.73	0.00	0.0610	10.58	465.5	396.93	0.0637	504.3	9.077	18.92	10.58	1.61
	85.10	32.46	67.73	0.00	0.0609	10.56	464.5	396.07	0.0652	519.6	9.353	19.49	11.03	1.61
	86.17	32.46	67.70	-0.00	0.0609	10.57	464.9	396.53	0.0650	519.1	9.343	19.48	11.02	1.61
	87.11	32.46	67.70	-0.00	0.0609	10.57	465.0	396.62	0.0650	519.0	9.343	19.48	11.01	1.61
	88.09	32.47	67.70	-0.00	0.0609	10.55	464.4	396.13	0.0649	519.9	9.359	19.51	11.04	1.61
	89.11	32.48	67.70	-0.00	0.0609	10.56	464.7	396.42	0.0651	520.1	9.362	19.52	11.05	1.61
	90.09	32.50	67.72	-0.00	0.0609	10.55	464.2	395.90	0.0649	518.2	9.328	19.44	10.99	1.61
	91.10	32.46	67.70	-0.00	0.0609	10.56	464.8	396.42	0.0653	521.3	9.383	19.56	11.08	1.61
	92.07	32.49	67.70	0.00	0.0609	10.55	464.3	396.10	0.0657	528.9	9.520	19.85	11.30	1.61
	93.08	32.53	67.72	0.00	0.0609	10.56	464.5	396.15	0.0652	523.4	9.422	19.64	11.14	1.61
	94.08	32.49	67.70	-0.00	0.0608	10.54	463.8	395.63	0.0663	533.7	9.606	20.03	11.43	1.61
	95.08	32.46	67.70	0.00	0.0608	10.55	464.0	395.76	0.0661	533.1	9.596	20.01	11.42	1.61
	96.10	32.46	67.70	0.00	0.0608	10.54	463.6	395.44	0.0658	528.1	9.506	19.82	11.28	1.61
	97.11	32.46	67.70	-0.00	0.0608	10.55	464.2	395.90	0.0658	528.3	9.509	19.82	11.28	1.61
	98.11	32.49	67.72	0.00	0.0608	10.54	463.7	395.45	0.0665	538.3	9.690	20.20	11.57	1.61
	99.11	32.49	67.70	-0.00	0.0608	10.54	463.7	395.51	0.0662	532.7	9.588	19.99	11.41	1.61
	100.09	32.48	67.70	-0.00	0.0608	10.54	463.7	395.54	0.0668	535.7	9.642	20.10	11.49	1.61
	101.09	32.46	67.70	0.00	0.0608	10.53	463.5	395.32	0.0669	544.9	9.808	20.45	11.75	1.61
	102.17	32.48	67.72	-0.00	0.0607	10.53	463.2	394.97	0.0665	536.8	9.662	20.14	11.52	1.61
	103.10	32.46	67.70	-0.00	0.0607	10.52	462.9	394.78	0.0665	536.9	9.663	20.15	11.52	1.61
	104.08	32.43	67.72	0.00	0.0608	10.52	462.9	394.66	0.0669	543.5	9.782	20.39	11.71	1.61
	105.10	32.46	67.70	0.00	0.0608	10.53	463.1	395.03	0.0670	545.5	9.819	20.47	11.77	1.61
	106.10	32.46	67.70	0.00	0.0607	10.53	463.3	395.13	0.0672	544.7	9.804	20.44	11.74	1.61
	107.09	32.50	67.70	0.00	0.0607	10.52	462.7	394.73	0.0676	551.2	9.921	20.69	11.92	1.61
	108.11	32.45	67.72	-0.00	0.0607	10.52	462.8	394.57	0.0678	550.1	9.903	20.64	11.89	1.61
	109.08	32.49	67.72	0.00	0.0606	10.50	461.8	393.81	0.0689	563.1	10.136	21.13	12.25	1.61
	110.11	32.46	67.75	-0.00	0.0606	10.50	461.8	393.62	0.0687	560.4	10.087	21.02	12.17	1.61
	111.10	32.46	67.75	0.00	0.0606	10.49	461.7	393.52	0.0682	559.8	10.076	20.99	12.16	1.61
	112.09	32.46	67.68	0.00	0.0606	10.50	462.0	394.15	0.0685	560.5	10.088	21.04	12.18	1.61
	113.08	32.49	67.70	0.00	0.0607	10.51	462.3	394.36	0.0681	555.5	9.999	20.85	12.04	1.61
	114.10	32.45	67.72	-0.00	0.0607	10.51	462.6	394.42	0.0683	556.3	10.013	20.87	12.06	1.61
	115.08	32.47	67.75	-0.00	0.0607	10.51	462.5	394.18	0.0683	559.9	10.078	21.00	12.16	1.61
	116.09	32.46	67.70	-0.00	0.0605	10.48	461.1	393.27	0.0691	567.3	10.212	21.29	12.36	1.61
	117.09	32.42	67.70	0.00	0.0606	10.50	461.9	393.90	0.0690	567.3	10.212	21.29	12.36	1.61
	118.11	32.46	67.70	-0.00	0.0606	10.48	461.2	393.40	0.0691	569.4	10.250	21.37	12.42	1.61
	119.17	32.48	67.72	-0.00	0.0606	10.48	461.2	393.31	0.0697	574.6	10.343	21.56	12.56	1.61
	120.09	32.46	67.72	0.00	0.0605	10.48	461.2	393.23	0.0700	574.0	10.332	21.54	12.54	1.61
