Jul 28 2015 at 16:09:50
Frequency: 1.00Hz.
CO2
Zero:  Value:0.95  Date:18 Mar 2005	 at 07:22:33	
Span:  Value:1.00  Date:18 Mar 2005	 at 07:25:09	
H2O
Zero:  Value:0.71  Date:18 Mar 2005	 at 07:52:31	
Span:  Value:0.99  Date:18 Mar 2005	 at 11:44:01	
	Relative Time	Temperature	Pressure	Aux Input	CO2 Absorptance	CO2 mmol/m3	CO2 mg/m3	CO2 umol/mol	H2O Absorptance	H2O mmol/m3	H2O g/m3	H2O mmol/mol	H2O(°C)	Cooler Voltage
	0.92	31.09	66.84	0.00	0.0619	10.87	478.4	411.47	0.0367	239.3	4.308	9.06	-0.19	1.60
	1.93	31.11	66.91	0.00	0.0621	10.86	477.8	410.54	0.0370	238.1	4.287	9.00	-0.25	1.60
	2.93	31.15	66.87	-0.00	0.0619	10.85	477.5	410.56	0.0376	244.6	4.404	9.26	0.12	1.59
	3.93	31.14	66.87	0.00	0.0619	10.81	475.7	409.02	0.0378	247.4	4.453	9.36	0.27	1.59
	4.93	31.11	66.87	-0.00	0.0619	10.83	476.6	409.74	0.0377	246.5	4.436	9.32	0.22	1.59
	5.91	31.11	66.87	0.00	0.0617	10.81	475.4	408.77	0.0378	246.9	4.444	9.34	0.24	1.60
	6.93	31.11	66.89	0.00	0.0613	10.75	473.1	406.62	0.0382	252.2	4.540	9.54	0.54	1.59
	7.91	31.09	66.87	0.00	0.0619	10.84	476.8	409.90	0.0380	249.9	4.498	9.45	0.41	1.59
	8.92	31.06	66.89	0.00	0.0618	10.82	475.9	408.97	0.0377	246.9	4.444	9.33	0.24	1.59
	9.94	31.07	66.87	0.00	0.0615	10.76	473.3	406.84	0.0378	247.1	4.448	9.35	0.25	1.59
	10.94	31.07	66.85	-0.00	0.0615	10.76	473.5	407.17	0.0379	248.3	4.469	9.39	0.32	1.59
	11.92	31.08	66.92	0.00	0.0612	10.69	470.4	404.09	0.0379	247.7	4.458	9.36	0.28	1.60
	12.95	31.05	66.89	-0.00	0.0613	10.71	471.1	404.80	0.0379	248.3	4.470	9.39	0.32	1.60
	13.93	31.07	66.87	0.00	0.0616	10.74	472.4	406.13	0.0378	246.6	4.439	9.33	0.22	1.59
	14.93	31.03	66.89	-0.00	0.0616	10.76	473.4	406.74	0.0377	246.6	4.439	9.32	0.22	1.59
	15.93	31.03	66.87	-0.00	0.0614	10.72	471.8	405.55	0.0376	246.1	4.430	9.31	0.20	1.59
	16.93	31.02	66.85	0.00	0.0614	10.72	471.7	405.57	0.0377	244.6	4.403	9.25	0.11	1.59
	17.99	31.01	66.87	0.00	0.0614	10.73	472.1	405.77	0.0373	243.2	4.377	9.20	0.03	1.59
	18.91	31.06	66.87	0.00	0.0615	10.72	471.9	405.65	0.0375	245.6	4.420	9.29	0.17	1.60
	19.94	31.03	66.84	-0.00	0.0614	10.71	471.3	405.27	0.0376	244.9	4.408	9.27	0.13	1.59
	20.92	31.04	66.87	0.00	0.0613	10.70	470.7	404.60	0.0371	242.4	4.364	9.17	-0.01	1.59
	21.92	31.03	66.89	0.00	0.0613	10.69	470.3	404.13	0.0371	240.1	4.322	9.08	-0.15	1.59
	22.92	31.02	66.87	0.00	0.0614	10.69	470.3	404.20	0.0373	242.7	4.369	9.18	0.00	1.59
	23.91	30.98	66.87	0.00	0.0613	10.71	471.0	404.82	0.0374	242.2	4.359	9.16	-0.03	1.59
	24.99	31.03	66.87	0.00	0.0614	10.73	472.1	405.82	0.0391	257.1	4.628	9.72	0.80	1.60
	25.94	31.01	66.89	-0.00	0.0613	10.70	470.9	404.63	0.0398	263.5	4.743	9.96	1.14	1.59
	26.93	31.01	66.89	0.00	0.0612	10.68	469.8	403.66	0.0384	254.1	4.574	9.61	0.64	1.59
	27.92	30.99	66.87	0.00	0.0612	10.69	470.2	404.09	0.0380	248.5	4.474	9.40	0.33	1.59
	28.94	31.02	66.91	-0.00	0.0611	10.66	469.1	402.89	0.0382	246.0	4.429	9.30	0.19	1.59
	29.94	30.98	66.85	0.00	0.0611	10.66	469.1	403.32	0.0385	254.7	4.585	9.63	0.67	1.59
	30.93	31.02	66.87	-0.00	0.0611	10.65	468.8	402.95	0.0390	257.9	4.643	9.75	0.84	1.60
	31.93	31.02	66.89	0.00	0.0611	10.65	468.6	402.61	0.0388	258.3	4.650	9.77	0.86	1.59
	32.92	30.99	66.87	0.00	0.0611	10.65	468.5	402.67	0.0381	248.1	4.465	9.38	0.30	1.59
	33.93	30.99	66.89	-0.00	0.0611	10.66	468.9	402.85	0.0390	257.1	4.629	9.72	0.80	1.59
	34.93	31.04	66.89	-0.00	0.0611	10.65	468.5	402.60	0.0386	253.2	4.557	9.57	0.59	1.59
	35.91	31.04	66.87	0.00	0.0611	10.65	468.7	402.91	0.0384	252.9	4.551	9.56	0.57	1.59
	36.92	31.01	66.89	-0.00	0.0612	10.66	469.2	403.15	0.0383	252.1	4.539	9.53	0.53	1.60
	37.92	31.04	66.86	0.00	0.0612	10.69	470.3	404.23	0.0384	252.6	4.547	9.55	0.56	1.59
	38.98	30.99	66.87	0.00	0.0611	10.65	468.4	402.56	0.0383	252.6	4.547	9.55	0.55	1.59
	39.91	31.01	66.89	0.00	0.0611	10.63	467.9	402.01	0.0378	247.2	4.450	9.35	0.26	1.59
	40.94	31.01	66.87	0.00	0.0610	10.63	467.7	401.97	0.0376	245.9	4.426	9.30	0.18	1.59
	41.93	31.01	66.87	0.00	0.0611	10.63	467.8	402.07	0.0377	246.6	4.438	9.32	0.22	1.59
	42.93	31.03	66.87	0.00	0.0610	10.64	468.2	402.43	0.0377	246.8	4.442	9.33	0.23	1.59
	43.91	31.03	66.87	0.00	0.0611	10.65	468.6	402.74	0.0383	251.2	4.522	9.50	0.48	1.59
	44.93	31.06	66.87	0.00	0.0611	10.65	468.6	402.81	0.0387	254.9	4.589	9.64	0.68	1.59
	45.91	31.05	66.87	0.00	0.0612	10.66	468.9	403.05	0.0392	258.1	4.646	9.76	0.85	1.59
	46.92	31.01	66.89	-0.00	0.0612	10.67	469.3	403.21	0.0396	261.1	4.700	9.87	1.01	1.59
	47.94	31.01	66.87	-0.00	0.0612	10.68	470.0	403.96	0.0396	263.2	4.738	9.95	1.13	1.59
	48.92	31.01	66.87	0.00	0.0613	10.68	469.8	403.78	0.0404	264.2	4.755	9.99	1.18	1.59
	49.92	31.01	66.89	-0.00	0.0613	10.68	470.0	403.79	0.0410	275.4	4.958	10.41	1.76	1.59
	50.92	31.00	66.89	0.00	0.0613	10.70	470.9	404.61	0.0416	281.4	5.066	10.64	2.06	1.59
	51.92	31.00	66.87	0.00	0.0612	10.65	468.8	402.91	0.0400	264.7	4.765	10.01	1.20	1.59
	52.91	31.00	66.87	0.00	0.0613	10.70	470.6	404.48	0.0411	273.1	4.916	10.33	1.64	1.60
	53.95	31.06	66.89	-0.00	0.0613	10.69	470.2	404.05	0.0409	276.4	4.975	10.45	1.81	1.60
	54.94	31.01	66.86	-0.00	0.0612	10.66	469.2	403.25	0.0400	268.5	4.832	10.15	1.40	1.60
	55.93	31.01	66.87	0.00	0.0612	10.67	469.5	403.50	0.0406	273.0	4.914	10.33	1.63	1.59
	56.92	31.03	66.87	-0.00	0.0611	10.64	468.0	402.23	0.0396	261.6	4.709	9.89	1.04	1.59
	57.92	31.06	66.87	0.00	0.0611	10.65	468.7	402.93	0.0395	262.0	4.717	9.91	1.06	1.59
	58.92	31.05	66.87	0.00	0.0611	10.64	468.3	402.55	0.0395	261.9	4.715	9.91	1.06	1.60
	59.92	31.06	66.86	-0.00	0.0612	10.66	469.0	403.22	0.0402	266.8	4.802	10.09	1.31	1.60
	60.93	31.04	66.84	-0.00	0.0612	10.67	469.5	403.72	0.0406	272.1	4.897	10.29	1.59	1.59
	61.93	31.02	66.87	0.00	0.0612	10.67	469.4	403.42	0.0413	274.9	4.948	10.40	1.73	1.59
	62.93	31.04	66.87	-0.00	0.0613	10.68	469.8	403.78	0.0417	278.4	5.011	10.53	1.91	1.60
	63.91	30.99	66.87	0.00	0.0612	10.68	470.0	403.91	0.0416	283.4	5.102	10.72	2.16	1.60
	64.93	31.02	66.87	-0.00	0.0613	10.68	469.9	403.88	0.0415	278.0	5.004	10.51	1.89	1.60
	65.93	30.98	66.87	0.00	0.0614	10.71	471.1	404.88	0.0420	285.0	5.130	10.78	2.23	1.60
	66.92	31.02	66.87	-0.00	0.0613	10.69	470.3	404.25	0.0421	284.8	5.126	10.77	2.22	1.60
	67.91	31.02	66.87	0.00	0.0614	10.69	470.5	404.34	0.0427	288.8	5.198	10.92	2.42	1.60
	68.92	31.01	66.89	0.00	0.0612	10.68	470.0	403.85	0.0421	285.4	5.138	10.79	2.26	1.60
	69.94	31.02	66.89	0.00	0.0612	10.67	469.4	403.34	0.0418	282.4	5.084	10.68	2.11	1.60
	70.92	31.01	66.87	0.00	0.0611	10.66	468.9	402.99	0.0416	280.8	5.054	10.62	2.03	1.60
	71.93	31.02	66.87	0.00	0.0611	10.65	468.6	402.73	0.0417	282.1	5.078	10.67	2.09	1.60
	72.92	30.99	66.87	0.00	0.0612	10.67	469.5	403.51	0.0422	286.1	5.149	10.82	2.29	1.60
	73.93	31.00	66.86	0.00	0.0612	10.68	469.7	403.71	0.0427	289.3	5.207	10.94	2.44	1.60
	74.91	31.01	66.87	0.00	0.0613	10.68	469.9	403.90	0.0429	292.4	5.262	11.06	2.59	1.60
	75.93	30.99	66.87	0.00	0.0613	10.68	470.0	403.88	0.0431	293.2	5.278	11.09	2.63	1.60
	76.92	31.02	66.84	-0.00	0.0613	10.71	471.1	405.06	0.0443	304.1	5.474	11.51	3.15	1.60
	77.94	31.02	66.89	-0.00	0.0614	10.72	471.5	405.14	0.0446	308.2	5.548	11.65	3.34	1.60
	78.92	31.01	66.87	0.00	0.0616	10.78	474.3	407.66	0.0456	318.3	5.730	12.04	3.80	1.60
	80.00	31.03	66.87	-0.00	0.0615	10.75	473.0	406.54	0.0457	316.7	5.700	11.98	3.72	1.60
	80.90	31.00	66.87	0.00	0.0616	10.77	473.9	407.34	0.0464	324.2	5.836	12.26	4.06	1.60
	81.92	31.06	66.87	0.00	0.0616	10.77	474.0	407.46	0.0465	324.6	5.843	12.28	4.08	1.60
	82.95	31.05	66.89	-0.00	0.0617	10.78	474.5	407.74	0.0477	336.7	6.061	12.73	4.60	1.60
	83.93	31.03	66.84	0.00	0.0617	10.78	474.5	408.01	0.0481	342.3	6.161	12.95	4.83	1.60
	84.94	31.03	66.87	0.00	0.0616	10.78	474.4	407.73	0.0480	340.4	6.126	12.87	4.75	1.60
	85.92	31.06	66.87	0.00	0.0616	10.76	473.6	407.13	0.0480	340.4	6.128	12.88	4.75	1.60
	86.92	31.06	66.89	0.00	0.0616	10.75	473.1	406.54	0.0476	336.1	6.050	12.71	4.57	1.60
	87.91	31.04	66.87	0.00	0.0617	10.78	474.3	407.69	0.0478	337.7	6.079	12.77	4.64	1.60
	88.94	31.08	66.89	-0.00	0.0617	10.79	474.7	407.97	0.0481	342.1	6.157	12.93	4.82	1.60
	89.92	31.07	66.89	0.00	0.0618	10.80	475.3	408.42	0.0481	342.1	6.158	12.94	4.83	1.60
	90.92	31.08	66.89	0.00	0.0619	10.82	475.9	409.02	0.0485	344.1	6.193	13.01	4.91	1.60
	91.93	31.04	66.89	-0.00	0.0619	10.83	476.4	409.38	0.0486	346.0	6.228	13.08	4.99	1.60
	92.91	31.03	66.87	0.00	0.0619	10.82	475.9	409.07	0.0489	347.7	6.258	13.15	5.06	1.60
	93.91	31.06	66.87	0.00	0.0618	10.82	476.0	409.19	0.0490	351.2	6.321	13.28	5.20	1.60
	94.91	31.05	66.87	0.00	0.0618	10.81	475.8	409.00	0.0490	350.1	6.302	13.24	5.16	1.60
	95.91	31.07	66.89	0.00	0.0618	10.81	475.6	408.71	0.0489	349.2	6.286	13.21	5.12	1.60
	96.92	31.05	66.87	-0.00	0.0618	10.81	475.6	408.86	0.0491	350.7	6.313	13.27	5.18	1.60
	97.94	31.08	66.87	0.00	0.0618	10.81	475.6	408.82	0.0496	355.1	6.391	13.43	5.36	1.60
	98.92	31.05	66.89	0.00	0.0619	10.83	476.4	409.34	0.0498	358.0	6.444	13.54	5.48	1.60
	99.93	31.05	66.89	-0.00	0.0619	10.84	477.0	409.88	0.0499	359.7	6.475	13.60	5.55	1.60
	100.95	31.07	66.87	-0.00	0.0620	10.84	477.1	410.12	0.0502	361.7	6.510	13.68	5.62	1.60
	101.93	31.05	66.92	-0.00	0.0620	10.84	477.1	409.81	0.0505	364.4	6.560	13.77	5.73	1.60
	102.91	31.07	66.89	0.00	0.0620	10.85	477.2	410.06	0.0504	364.2	6.556	13.77	5.73	1.60
	103.93	31.04	66.86	0.00	0.0621	10.86	477.8	410.71	0.0505	363.9	6.550	13.76	5.71	1.60
	104.99	31.08	66.90	0.00	0.0621	10.86	477.7	410.44	0.0501	361.3	6.504	13.66	5.61	1.60
	105.91	31.05	66.87	0.00	0.0621	10.87	478.2	411.08	0.0505	364.1	6.554	13.77	5.72	1.60
	106.91	31.08	66.86	0.00	0.0622	10.90	479.6	412.34	0.0512	371.7	6.691	14.06	6.02	1.60
	108.00	31.10	66.89	-0.00	0.0623	10.93	480.8	413.18	0.0521	379.2	6.825	14.34	6.31	1.60
	108.90	31.07	66.87	0.00	0.0624	10.96	482.2	414.54	0.0529	388.6	6.994	14.70	6.66	1.60
	109.92	31.05	66.87	0.00	0.0623	10.93	481.1	413.56	0.0526	386.4	6.954	14.61	6.58	1.60
	110.95	31.08	66.87	-0.00	0.0622	10.91	480.1	412.70	0.0525	385.7	6.943	14.59	6.56	1.60
	111.93	31.07	66.85	0.00	0.0623	10.91	480.1	412.87	0.0528	385.2	6.933	14.57	6.54	1.60
	112.93	31.05	66.86	-0.00	0.0622	10.90	479.8	412.46	0.0528	388.4	6.992	14.69	6.66	1.60
	113.93	31.08	66.92	0.00	0.0625	10.96	482.2	414.23	0.0536	394.8	7.107	14.92	6.90	1.60
	114.93	31.07	66.87	-0.00	0.0624	10.96	482.4	414.71	0.0535	396.3	7.134	14.99	6.95	1.60
	115.91	31.07	66.89	0.00	0.0625	10.95	481.8	414.05	0.0534	393.7	7.087	14.89	6.86	1.60
	116.94	31.10	66.86	-0.00	0.0626	10.99	483.4	415.58	0.0537	398.4	7.172	15.07	7.03	1.60
	117.92	31.07	66.89	0.00	0.0624	10.94	481.2	413.52	0.0533	392.9	7.071	14.85	6.82	1.60
	118.92	31.10	66.89	-0.00	0.0625	10.94	481.5	413.79	0.0534	393.8	7.089	14.89	6.86	1.60
	119.93	31.05	66.92	-0.00	0.0626	11.01	484.3	415.97	0.0542	403.2	7.257	15.24	7.20	1.60
