Jul 29 2015 at 14:21:56
Frequency: 1.00Hz.
CO2
Zero:  Value:0.95  Date:18 Mar 2005	 at 07:22:33	
Span:  Value:1.00  Date:18 Mar 2005	 at 07:25:09	
H2O
Zero:  Value:0.71  Date:18 Mar 2005	 at 07:52:31	
Span:  Value:0.99  Date:18 Mar 2005	 at 11:44:01	
	Relative Time	Temperature	Pressure	Aux Input	CO2 Absorptance	CO2 mmol/m3	CO2 mg/m3	CO2 umol/mol	H2O Absorptance	H2O mmol/m3	H2O g/m3	H2O mmol/mol	H2O(°C)	Cooler Voltage
	0.45	37.14	73.74	0.00	0.0666	11.59	510.0	405.45	0.0456	303.8	5.468	10.63	3.41	1.83
	1.45	37.20	73.82	-0.00	0.0667	11.60	510.4	405.48	0.0466	320.5	5.768	11.20	4.18	1.83
	2.45	37.18	73.82	-0.00	0.0666	11.57	508.9	404.25	0.0474	321.6	5.789	11.24	4.23	1.82
	3.45	37.19	73.80	-0.00	0.0661	11.45	503.8	400.33	0.0468	315.9	5.686	11.04	3.97	1.82
	4.45	37.16	73.80	0.00	0.0663	11.47	504.5	400.85	0.0458	309.1	5.563	10.80	3.66	1.82
	5.45	37.20	73.80	-0.00	0.0662	11.48	505.3	401.57	0.0469	312.8	5.630	10.94	3.83	1.83
	6.44	37.18	73.80	0.00	0.0661	11.47	504.7	401.03	0.0468	316.5	5.696	11.06	4.00	1.83
	7.45	37.15	73.80	0.00	0.0661	11.42	502.5	399.24	0.0463	321.4	5.785	11.24	4.22	1.83
	8.44	37.13	73.80	0.00	0.0658	11.41	502.2	399.01	0.0466	320.9	5.776	11.22	4.19	1.82
	9.45	37.15	73.82	-0.00	0.0661	11.38	500.9	397.82	0.0438	308.8	5.559	10.79	3.65	1.82
	10.45	37.14	73.82	-0.00	0.0657	11.36	499.8	396.95	0.0474	319.3	5.747	11.16	4.12	1.82
	11.45	37.13	73.80	0.00	0.0656	11.34	498.8	396.30	0.0477	317.7	5.719	11.11	4.05	1.83
	12.44	37.12	73.82	0.00	0.0660	11.35	499.4	396.57	0.0476	326.7	5.881	11.42	4.45	1.83
	13.44	37.19	73.80	0.00	0.0660	11.43	502.8	399.54	0.0465	321.4	5.786	11.24	4.22	1.82
	14.45	37.11	73.80	0.00	0.0656	11.34	498.8	396.24	0.0479	327.6	5.897	11.45	4.49	1.82
	15.44	37.11	73.77	0.00	0.0657	11.38	500.8	398.02	0.0470	324.3	5.838	11.34	4.34	1.82
	16.45	37.11	73.80	-0.00	0.0658	11.41	501.9	398.68	0.0479	325.4	5.857	11.37	4.39	1.82
	17.44	37.07	73.80	0.00	0.0655	11.30	497.0	394.81	0.0505	357.2	6.429	12.48	5.73	1.83
	18.45	37.10	73.80	-0.00	0.0655	11.38	500.8	397.86	0.0520	366.5	6.597	12.81	6.10	1.83
	19.44	37.11	73.77	0.00	0.0656	11.38	500.7	397.86	0.0510	353.5	6.363	12.36	5.58	1.82
	20.45	37.11	73.80	-0.00	0.0656	11.37	500.1	397.27	0.0504	350.8	6.314	12.26	5.47	1.83
	21.45	37.07	73.80	0.00	0.0657	11.36	499.8	396.99	0.0513	359.9	6.478	12.58	5.84	1.83
	22.45	37.11	73.77	-0.00	0.0656	11.31	497.7	395.54	0.0549	387.8	6.980	13.56	6.92	1.83
	23.44	37.11	73.80	0.00	0.0657	11.38	500.5	397.64	0.0537	380.5	6.850	13.30	6.65	1.83
	24.44	37.10	73.80	0.00	0.0656	11.34	499.1	396.46	0.0529	374.9	6.748	13.10	6.43	1.83
	25.45	37.11	73.80	-0.00	0.0656	11.33	498.5	396.02	0.0552	392.3	7.061	13.71	7.09	1.82
	26.45	37.11	73.80	-0.00	0.0655	11.31	497.8	395.47	0.0538	384.1	6.914	13.43	6.78	1.83
	27.45	37.10	73.82	-0.00	0.0656	11.33	498.5	395.83	0.0545	390.0	7.019	13.63	7.00	1.83
	28.45	37.07	73.80	0.00	0.0657	11.34	499.1	396.47	0.0540	386.6	6.959	13.51	6.87	1.83
	29.44	37.07	73.77	0.00	0.0656	11.35	499.4	396.82	0.0558	398.7	7.176	13.94	7.32	1.83
	30.44	37.07	73.77	0.00	0.0659	11.35	499.6	396.99	0.0561	409.4	7.370	14.31	7.71	1.83
	31.44	37.06	73.80	0.00	0.0658	11.40	501.8	398.60	0.0558	405.6	7.301	14.18	7.57	1.83
	32.44	37.08	73.75	0.00	0.0654	11.30	497.0	395.10	0.0556	399.7	7.194	13.98	7.36	1.83
	33.45	37.11	73.80	0.00	0.0656	11.34	498.9	396.32	0.0561	406.1	7.310	14.19	7.59	1.83
	34.44	37.10	73.85	0.00	0.0657	11.38	500.6	397.45	0.0563	406.1	7.309	14.18	7.59	1.83
	35.45	37.03	73.77	0.00	0.0660	11.45	503.8	400.30	0.0556	400.9	7.217	14.02	7.40	1.83
	36.45	37.07	73.82	0.00	0.0662	11.45	503.7	399.99	0.0589	424.5	7.641	14.83	8.24	1.83
	37.47	37.13	73.80	0.00	0.0653	11.49	505.6	401.67	0.0601	452.3	8.141	15.81	9.18	1.83
	38.45	37.14	73.80	0.00	0.0667	11.55	508.3	403.88	0.0571	417.0	7.507	14.58	7.99	1.83
	39.47	37.14	73.77	-0.00	0.0667	11.61	510.7	405.93	0.0608	452.7	8.148	15.83	9.20	1.83
	40.47	37.19	73.80	-0.00	0.0663	11.51	506.3	402.34	0.0605	457.2	8.229	15.98	9.35	1.83
	41.47	37.24	73.77	-0.00	0.0663	11.50	506.0	402.27	0.0602	446.7	8.041	15.63	9.01	1.83
	42.47	37.20	73.80	-0.00	0.0665	11.53	507.3	403.13	0.0619	462.6	8.327	16.18	9.52	1.83
	43.45	37.21	73.82	0.00	0.0668	11.58	509.7	404.87	0.0623	467.0	8.406	16.32	9.66	1.83
	44.47	37.20	73.80	-0.00	0.0667	11.59	509.9	405.23	0.0601	452.9	8.152	15.83	9.21	1.83
	45.45	37.19	73.80	0.00	0.0668	11.61	510.7	405.79	0.0602	444.0	7.992	15.52	8.91	1.83
	46.45	37.23	73.80	0.00	0.0665	11.57	509.1	404.60	0.0589	439.4	7.909	15.36	8.76	1.83
	47.45	37.19	73.80	0.00	0.0664	11.51	506.5	402.51	0.0574	421.4	7.585	14.73	8.14	1.83
	48.47	37.14	73.77	0.00	0.0667	11.56	508.6	404.26	0.0586	428.4	7.712	14.98	8.38	1.83
	49.53	37.14	73.80	0.00	0.0669	11.63	511.8	406.65	0.0602	447.6	8.057	15.65	9.03	1.83
	50.45	37.21	73.77	0.00	0.0668	11.60	510.5	405.86	0.0609	455.5	8.199	15.93	9.29	1.83
	51.47	37.20	73.82	0.00	0.0666	11.56	508.7	404.10	0.0607	453.3	8.159	15.84	9.22	1.83
	52.45	37.17	73.77	0.00	0.0667	11.60	510.2	405.54	0.0612	459.9	8.278	16.08	9.43	1.83
	53.47	37.24	73.75	-0.00	0.0667	11.59	509.9	405.53	0.0615	461.4	8.305	16.15	9.48	1.83
	54.47	37.16	73.80	-0.00	0.0667	11.59	510.0	405.21	0.0606	455.5	8.198	15.92	9.29	1.83
	55.45	37.20	73.77	0.00	0.0669	11.62	511.3	406.44	0.0613	460.2	8.283	16.10	9.44	1.83
	56.47	37.12	73.80	-0.00	0.0665	11.56	508.5	403.95	0.0600	448.0	8.065	15.66	9.04	1.83
	57.47	37.14	73.77	-0.00	0.0669	11.58	509.5	404.94	0.0556	453.9	8.170	15.87	9.24	1.83
	58.47	37.18	73.82	-0.00	0.0667	11.56	508.8	404.13	0.0609	455.7	8.202	15.93	9.30	1.83
	59.47	37.11	73.80	0.00	0.0668	11.60	510.6	405.59	0.0608	456.0	8.207	15.94	9.30	1.83
	60.47	37.14	73.80	0.00	0.0667	11.59	509.9	405.14	0.0613	459.0	8.261	16.04	9.40	1.83
	61.45	37.18	73.80	0.00	0.0666	11.57	509.1	404.55	0.0608	458.8	8.258	16.04	9.40	1.83
	62.45	37.12	73.80	-0.00	0.0663	11.50	505.9	401.95	0.0603	447.1	8.047	15.63	9.01	1.83
	63.45	37.13	73.77	0.00	0.0665	11.58	509.6	404.97	0.0614	462.3	8.322	16.17	9.51	1.84
	64.47	37.11	73.80	-0.00	0.0668	11.61	510.8	405.77	0.0625	472.6	8.507	16.52	9.84	1.84
	65.47	37.10	73.80	-0.00	0.0671	11.63	511.7	406.49	0.0628	481.9	8.674	16.84	10.13	1.83
	66.53	37.07	73.77	0.00	0.0671	11.67	513.5	408.03	0.0629	477.5	8.595	16.70	9.99	1.83
	67.45	37.07	73.80	0.00	0.0666	11.57	509.1	404.42	0.0625	473.5	8.523	16.55	9.86	1.83
	68.47	37.05	73.82	-0.00	0.0666	11.77	517.9	411.20	0.0613	458.0	8.245	16.00	9.37	1.83
	69.45	37.11	73.82	-0.00	0.0666	11.57	509.0	404.24	0.0614	460.0	8.280	16.07	9.43	1.84
	70.45	37.05	73.77	0.00	0.0668	11.58	509.3	404.69	0.0632	471.0	8.479	16.47	9.78	1.84
	71.47	37.08	73.80	-0.00	0.0670	11.65	512.8	407.33	0.0647	495.4	8.918	17.32	10.54	1.84
	72.45	37.11	73.82	0.00	0.0669	11.64	512.1	406.66	0.0654	504.4	9.079	17.62	10.81	1.84
	73.47	37.08	73.80	-0.00	0.0666	11.55	508.2	403.70	0.0637	483.7	8.707	16.91	10.18	1.84
	74.47	37.07	73.77	0.00	0.0668	11.61	510.7	405.79	0.0639	487.0	8.766	17.03	10.28	1.84
	75.45	37.06	73.80	0.00	0.0667	11.60	510.2	405.27	0.0637	487.8	8.780	17.05	10.31	1.84
	76.45	37.06	73.80	0.00	0.0668	11.60	510.6	405.57	0.0640	488.0	8.784	17.06	10.31	1.84
	77.45	37.06	73.77	0.00	0.0669	11.87	522.2	414.93	0.0641	499.4	8.990	17.46	10.66	1.84
	78.47	37.06	73.80	-0.00	0.0670	11.63	511.7	406.44	0.0647	495.0	8.910	17.30	10.53	1.84
	79.45	37.03	73.80	0.00	0.0670	11.67	513.4	407.77	0.0652	503.6	9.065	17.60	10.78	1.84
	80.47	37.06	73.77	-0.00	0.0667	11.66	512.9	407.50	0.0612	495.9	8.927	17.34	10.55	1.84
	81.47	37.05	73.77	-0.00	0.0669	11.65	512.5	407.22	0.0641	490.9	8.835	17.16	10.40	1.84
	82.45	37.08	73.77	0.00	0.0668	11.59	509.8	405.09	0.0630	479.5	8.631	16.77	10.05	1.84
	83.53	37.11	73.82	0.00	0.0667	11.59	510.0	405.02	0.0637	485.4	8.737	16.96	10.24	1.84
	84.45	37.07	73.80	0.00	0.0668	11.61	510.7	405.66	0.0636	484.7	8.725	16.94	10.21	1.84
	85.45	37.08	73.77	0.00	0.0669	11.65	512.5	407.25	0.0640	488.4	8.792	17.08	10.33	1.84
	86.45	37.06	73.77	0.00	0.0671	11.67	513.6	408.10	0.0641	491.7	8.851	17.19	10.43	1.84
	87.45	37.08	73.80	0.00	0.0670	11.78	518.5	411.90	0.0643	492.3	8.861	17.21	10.45	1.84
	88.47	37.08	73.77	0.00	0.0670	11.67	513.4	407.93	0.0649	498.8	8.979	17.44	10.64	1.84
	89.47	37.08	73.80	-0.00	0.0669	11.63	511.8	406.58	0.0650	499.9	8.998	17.47	10.68	1.84
	90.45	37.03	73.80	0.00	0.0669	11.63	511.8	406.49	0.0650	500.3	9.006	17.48	10.69	1.84
	91.45	37.01	73.77	0.00	0.0671	11.66	513.0	407.53	0.0652	501.6	9.029	17.53	10.72	1.84
	92.47	37.04	73.77	-0.00	0.0673	11.67	513.3	407.82	0.0656	502.3	9.042	17.56	10.75	1.84
	93.45	37.06	73.80	-0.00	0.0673	11.72	515.6	409.54	0.0656	508.0	9.143	17.75	10.91	1.84
	94.47	37.04	73.80	-0.00	0.0671	11.69	514.2	408.42	0.0653	503.4	9.061	17.59	10.78	1.84
	95.47	37.06	73.80	-0.00	0.0671	11.68	514.1	408.34	0.0651	501.8	9.032	17.54	10.73	1.84
	96.45	37.05	73.77	0.00	0.0672	11.69	514.2	408.55	0.0654	503.5	9.062	17.60	10.78	1.84
	97.44	37.02	73.77	0.00	0.0670	11.67	513.3	407.81	0.0657	508.5	9.153	17.77	10.93	1.84
	98.47	37.05	73.75	-0.00	0.0671	11.68	514.1	408.58	0.0657	508.0	9.143	17.76	10.91	1.84
	99.47	37.07	73.77	0.00	0.0672	11.69	514.4	408.75	0.0659	509.8	9.176	17.82	10.97	1.84
	100.45	37.10	73.80	-0.00	0.0672	11.71	515.1	409.21	0.0663	514.5	9.261	17.98	11.11	1.84
	101.45	37.08	73.80	0.00	0.0672	11.71	515.1	409.17	0.0664	515.5	9.278	18.02	11.14	1.84
	102.45	37.07	73.80	0.00	0.0672	11.70	514.8	408.94	0.0666	515.9	9.285	18.03	11.15	1.84
	103.45	37.08	73.80	0.00	0.0673	11.71	515.2	409.25	0.0668	519.0	9.342	18.14	11.24	1.84
	104.45	37.03	73.80	-0.00	0.0675	11.77	517.9	411.29	0.0673	525.1	9.451	18.35	11.41	1.85
	105.47	37.07	73.80	0.00	0.0675	11.79	518.9	412.15	0.0673	527.0	9.485	18.42	11.47	1.84
	106.45	37.07	73.80	0.00	0.0675	11.76	517.5	411.06	0.0674	526.7	9.481	18.41	11.46	1.84
	107.45	37.04	73.80	-0.00	0.0674	11.74	516.6	410.32	0.0675	528.2	9.508	18.46	11.50	1.84
	108.47	37.03	73.77	-0.00	0.0675	11.76	517.3	411.00	0.0676	528.6	9.515	18.48	11.51	1.85
	109.45	37.04	73.80	0.00	0.0677	11.79	518.9	412.10	0.0684	535.2	9.634	18.70	11.70	1.84
	110.45	37.04	73.80	0.00	0.0674	11.97	526.5	418.16	0.0678	539.1	9.703	18.84	11.81	1.85
	111.45	37.03	73.80	0.00	0.0678	11.83	520.7	413.58	0.0679	531.4	9.565	18.57	11.59	1.85
	112.45	37.06	73.80	0.00	0.0676	11.81	519.6	412.71	0.0682	535.0	9.629	18.70	11.70	1.85
	113.47	37.01	73.77	-0.00	0.0678	11.81	519.6	412.82	0.0690	542.5	9.765	18.96	11.91	1.85
	114.44	37.01	73.82	0.00	0.0676	11.80	519.0	412.03	0.0687	541.9	9.754	18.93	11.89	1.85
	115.45	37.01	73.80	0.00	0.0681	11.98	526.9	418.45	0.0684	490.3	8.825	17.13	10.38	1.85
	116.45	37.02	73.77	0.00	0.0676	11.77	517.9	411.49	0.0688	540.8	9.734	18.90	11.86	1.85
	117.45	37.01	73.80	-0.00	0.0677	11.80	519.4	412.49	0.0691	546.2	9.832	19.09	12.01	1.85
	118.44	37.02	73.80	0.00	0.0678	11.84	520.8	413.59	0.0693	548.7	9.876	19.17	12.08	1.85
	119.45	37.04	73.82	0.00	0.0678	11.82	520.0	412.89	0.0697	553.4	9.961	19.33	12.21	1.85
	120.45	37.04	73.82	-0.00	0.0676	11.79	518.8	411.95	0.0692	548.7	9.877	19.17	12.08	1.85
	121.45	37.05	73.77	0.00	0.0677	11.80	519.3	412.64	0.0691	545.9	9.826	19.08	12.00	1.85
	122.47	37.02	73.85	-0.00	0.0681	11.89	523.1	415.15	0.0705	558.9	10.060	19.52	12.36	1.85
	123.47	37.04	73.80	-0.00	0.0677	11.82	520.0	413.00	0.0699	557.6	10.036	19.48	12.32	1.85
	124.52	37.02	73.80	0.00	0.0679	11.86	521.7	414.35	0.0703	559.0	10.062	19.53	12.36	1.85
	125.44	36.94	73.77	0.00	0.0677	11.83	520.3	413.26	0.0701	558.1	10.046	19.51	12.33	1.85
	126.45	36.99	73.80	0.00	0.0679	11.84	521.1	413.82	0.0704	560.9	10.097	19.60	12.41	1.85
	127.45	37.01	73.80	0.00	0.0679	11.89	523.0	415.37	0.0709	570.2	10.264	19.93	12.66	1.85
	128.45	37.06	73.80	-0.00	0.0679	11.85	521.2	413.99	0.0704	560.7	10.092	19.60	12.41	1.85
	129.45	37.03	73.80	0.00	0.0679	11.84	521.0	413.80	0.0704	561.7	10.110	19.63	12.43	1.85
	130.45	37.05	73.77	0.00	0.0679	11.87	522.1	414.82	0.0704	560.6	10.091	19.60	12.41	1.85
	131.45	37.07	73.80	-0.00	0.0680	11.86	522.0	414.67	0.0706	564.1	10.154	19.72	12.50	1.85
	132.47	37.14	73.82	0.00	0.0679	11.84	520.9	413.68	0.0711	566.7	10.201	19.80	12.58	1.85
	133.45	37.15	73.80	0.00	0.0677	11.83	520.3	413.43	0.0711	569.5	10.250	19.91	12.65	1.86
	134.45	37.14	73.80	0.00	0.0678	11.82	520.1	413.21	0.0712	570.2	10.264	19.93	12.67	1.85
	135.44	37.13	73.80	0.00	0.0678	11.83	520.6	413.60	0.0711	570.9	10.275	19.96	12.69	1.85
	136.47	37.11	73.82	-0.00	0.0679	11.85	521.2	413.89	0.0714	571.3	10.283	19.96	12.70	1.85
	137.45	37.10	73.80	0.00	0.0681	11.89	523.1	415.57	0.0717	576.0	10.367	20.13	12.82	1.85
	138.45	37.08	73.74	-0.00	0.0681	11.89	523.4	416.03	0.0719	576.9	10.384	20.18	12.84	1.85
	139.47	37.11	73.80	-0.00	0.0681	11.92	524.5	416.64	0.0722	582.5	10.485	20.36	12.99	1.86
	140.47	37.11	73.80	-0.00	0.0681	11.89	523.4	415.77	0.0718	578.9	10.420	20.23	12.90	1.85
	141.44	37.13	73.80	0.00	0.0680	11.88	522.8	415.31	0.0716	574.8	10.346	20.09	12.79	1.86
	142.44	37.19	73.80	0.00	0.0681	11.89	523.1	415.67	0.0718	577.0	10.386	20.17	12.85	1.86
	143.47	37.14	73.80	-0.00	0.0682	11.90	523.8	416.13	0.0718	576.6	10.379	20.16	12.84	1.86
	144.45	37.13	73.80	0.00	0.0682	11.91	524.3	416.51	0.0715	573.3	10.320	20.04	12.75	1.86
	145.45	37.12	73.80	0.00	0.0682	11.94	525.3	417.29	0.0718	578.1	10.405	20.21	12.88	1.86
	146.45	37.13	73.80	0.00	0.0679	11.87	522.4	415.06	0.0716	576.6	10.380	20.16	12.84	1.86
	147.53	37.11	73.82	-0.00	0.0680	11.85	521.2	413.94	0.0718	576.1	10.370	20.13	12.83	1.86
	148.45	37.07	73.80	-0.00	0.0681	11.90	523.6	415.93	0.0721	580.0	10.441	20.27	12.93	1.86
	149.45	37.07	73.80	-0.00	0.0682	11.92	524.4	416.56	0.0723	582.3	10.481	20.35	12.99	1.86
	150.47	37.05	73.77	-0.00	0.0683	11.95	525.8	417.78	0.0723	583.2	10.498	20.39	13.01	1.86
	151.51	37.07	73.80	0.00	0.0682	11.92	524.7	416.77	0.0721	582.1	10.477	20.34	12.98	1.86
	152.44	37.06	73.72	0.00	0.0682	11.91	523.9	416.61	0.0724	582.3	10.482	20.37	12.99	1.86
	153.45	37.03	73.82	0.00	0.0684	11.97	526.5	418.00	0.0736	598.5	10.772	20.91	13.40	1.86
	154.45	37.08	73.80	-0.00	0.0683	11.94	525.2	417.19	0.0733	595.1	10.711	20.80	13.32	1.86
	155.44	37.06	73.77	0.00	0.0682	11.92	524.6	416.80	0.0729	588.9	10.601	20.59	13.16	1.86
	156.44	37.04	73.82	0.00	0.0683	11.94	525.5	417.22	0.0731	592.5	10.665	20.70	13.25	1.86
	157.45	37.01	73.80	0.00	0.0685	11.97	526.7	418.29	0.0738	601.2	10.822	21.01	13.47	1.86
