Jul 29 2015 at 13:53:43
Frequency: 1.00Hz.
CO2
Zero:  Value:0.95  Date:18 Mar 2005	 at 07:22:33	
Span:  Value:1.00  Date:18 Mar 2005	 at 07:25:09	
H2O
Zero:  Value:0.71  Date:18 Mar 2005	 at 07:52:31	
Span:  Value:0.99  Date:18 Mar 2005	 at 11:44:01	
	Relative Time	Temperature	Pressure	Aux Input	CO2 Absorptance	CO2 mmol/m3	CO2 mg/m3	CO2 umol/mol	H2O Absorptance	H2O mmol/m3	H2O g/m3	H2O mmol/mol	H2O(°C)	Cooler Voltage
	0.81	36.95	73.82	0.00	0.0663	11.54	507.8	403.06	0.0557	391.9	7.055	13.69	7.07	1.74
	1.83	36.93	73.82	0.00	0.0661	11.46	504.2	400.15	0.0547	392.1	7.058	13.69	7.07	1.75
	2.83	36.93	73.85	0.00	0.0661	11.46	504.3	400.14	0.0566	399.1	7.184	13.93	7.33	1.74
	3.81	36.92	73.85	0.00	0.0659	11.43	503.0	399.07	0.0562	409.2	7.365	14.28	7.70	1.74
	4.84	36.93	73.82	-0.00	0.0658	11.40	501.6	398.13	0.0580	430.0	7.740	15.02	8.43	1.74
	5.83	36.93	73.85	0.00	0.0656	11.37	500.4	396.97	0.0573	417.5	7.514	14.57	7.99	1.74
	6.83	36.86	73.85	0.00	0.0657	11.34	499.0	395.85	0.0574	417.7	7.518	14.58	7.99	1.75
	7.83	36.82	73.85	-0.00	0.0655	11.34	499.2	395.90	0.0553	412.6	7.427	14.40	7.81	1.74
	8.83	36.88	73.82	0.00	0.0657	11.34	499.2	396.12	0.0556	401.3	7.223	14.01	7.41	1.74
	9.83	36.86	73.82	-0.00	0.0657	11.35	499.5	396.36	0.0556	401.8	7.233	14.03	7.43	1.74
	10.81	36.80	73.82	0.00	0.0656	11.33	498.7	395.64	0.0562	407.3	7.332	14.22	7.63	1.74
	11.83	36.82	73.82	0.00	0.0655	11.31	497.9	395.00	0.0573	416.8	7.503	14.55	7.96	1.74
	12.83	36.86	73.82	-0.00	0.0654	11.29	496.9	394.31	0.0572	416.1	7.490	14.53	7.94	1.74
	13.81	36.85	73.85	0.00	0.0653	11.28	496.1	393.51	0.0575	419.6	7.553	14.65	8.06	1.75
	14.83	36.86	73.85	-0.00	0.0654	11.29	496.8	394.07	0.0574	419.6	7.553	14.64	8.06	1.74
	15.83	36.85	73.82	0.00	0.0654	11.29	496.9	394.24	0.0577	422.4	7.604	14.75	8.16	1.74
	16.89	36.88	73.85	0.00	0.0651	11.23	494.3	392.09	0.0574	420.6	7.571	14.68	8.10	1.74
	17.83	36.88	73.85	-0.00	0.0652	11.25	495.1	392.75	0.0577	423.9	7.630	14.80	8.21	1.74
	18.83	36.88	73.85	0.00	0.0655	11.30	497.0	394.29	0.0578	422.2	7.600	14.74	8.16	1.75
	19.83	36.90	73.85	0.00	0.0652	11.26	495.5	393.06	0.0579	423.7	7.627	14.79	8.21	1.75
	20.83	36.87	73.87	-0.00	0.0652	11.24	494.5	392.14	0.0590	433.0	7.794	15.11	8.53	1.74
	21.84	36.86	73.82	-0.00	0.0649	11.20	492.6	390.87	0.0625	464.9	8.368	16.23	9.58	1.74
	22.83	36.89	73.85	0.00	0.0649	11.19	492.2	390.44	0.0610	457.4	8.232	15.96	9.34	1.74
	23.81	36.93	73.87	0.00	0.0649	11.18	491.8	390.05	0.0614	460.7	8.293	16.08	9.45	1.74
	24.81	36.93	73.82	0.00	0.0650	11.22	493.6	391.71	0.0601	449.0	8.083	15.68	9.07	1.75
	25.83	36.92	73.82	0.00	0.0652	11.24	494.7	392.62	0.0595	443.2	7.978	15.48	8.87	1.75
	26.83	36.95	73.85	0.00	0.0652	11.26	495.5	393.12	0.0589	436.6	7.858	15.24	8.65	1.74
	27.81	36.95	73.85	0.00	0.0652	11.26	495.4	393.05	0.0590	434.5	7.820	15.17	8.58	1.74
	28.83	36.92	73.87	0.00	0.0650	11.23	494.2	391.95	0.0596	439.8	7.916	15.35	8.76	1.74
	29.83	36.95	73.82	-0.00	0.0651	11.22	493.9	391.98	0.0597	443.5	7.983	15.49	8.88	1.74
	30.81	36.95	73.85	0.00	0.0650	11.20	492.8	390.99	0.0600	446.8	8.043	15.60	8.99	1.75
	31.83	36.89	73.85	-0.00	0.0651	11.22	493.7	391.65	0.0611	458.2	8.247	15.99	9.36	1.75
	32.83	36.92	73.82	0.00	0.0650	11.22	493.5	391.64	0.0616	456.9	8.225	15.96	9.33	1.74
	33.89	36.93	73.85	0.00	0.0650	11.21	493.1	391.24	0.0616	464.6	8.363	16.22	9.57	1.74
	34.83	36.95	73.82	-0.00	0.0649	11.19	492.4	390.80	0.0615	460.7	8.293	16.09	9.45	1.74
	35.84	36.92	73.85	-0.00	0.0648	11.18	491.8	390.15	0.0632	478.2	8.607	16.69	10.00	1.74
	36.83	36.91	73.85	0.00	0.0648	11.16	491.2	389.68	0.0637	483.8	8.708	16.89	10.18	1.75
	37.81	36.95	73.85	0.00	0.0647	11.14	490.3	389.06	0.0646	495.8	8.925	17.31	10.55	1.74
	38.81	36.95	73.85	0.00	0.0648	11.16	490.9	389.47	0.0645	495.7	8.923	17.31	10.54	1.74
	39.83	36.89	73.82	0.00	0.0648	11.17	491.5	390.03	0.0660	510.6	9.190	17.83	10.98	1.74
	40.83	36.89	73.85	-0.00	0.0648	11.16	491.0	389.49	0.0658	508.1	9.146	17.74	10.91	1.74
	41.81	36.93	73.85	0.00	0.0648	11.15	490.6	389.27	0.0647	495.3	8.916	17.29	10.53	1.74
	42.83	36.92	73.85	0.00	0.0648	11.16	491.0	389.55	0.0646	493.8	8.888	17.24	10.48	1.75
	43.83	36.93	73.87	0.00	0.0649	11.19	492.2	390.38	0.0661	511.8	9.212	17.86	11.02	1.75
	44.83	36.90	73.85	-0.00	0.0649	11.17	491.6	390.00	0.0664	513.9	9.251	17.94	11.08	1.74
	45.83	36.87	73.85	-0.00	0.0648	11.17	491.4	389.78	0.0664	514.9	9.267	17.97	11.11	1.74
	46.83	36.87	73.85	0.00	0.0648	11.15	490.8	389.33	0.0666	517.0	9.305	18.04	11.17	1.74
	47.81	36.88	73.85	0.00	0.0648	11.15	490.7	389.24	0.0659	510.9	9.197	17.83	10.99	1.75
	48.83	36.94	73.85	-0.00	0.0647	11.14	490.3	389.04	0.0662	512.9	9.232	17.91	11.05	1.75
	49.84	36.87	73.87	-0.00	0.0648	11.17	491.3	389.60	0.0663	513.1	9.236	17.90	11.06	1.75
	50.83	36.87	73.85	0.00	0.0648	11.17	491.6	389.96	0.0660	510.4	9.187	17.81	10.98	1.74
	51.81	36.89	73.82	0.00	0.0649	11.17	491.7	390.17	0.0662	515.3	9.275	17.99	11.12	1.74
	52.81	36.90	73.82	0.00	0.0648	11.17	491.3	389.92	0.0681	530.5	9.549	18.52	11.56	1.74
	53.83	36.93	73.87	0.00	0.0649	11.17	491.3	389.67	0.0684	539.1	9.704	18.81	11.81	1.75
	54.83	36.89	73.85	-0.00	0.0650	11.20	492.8	390.97	0.0682	536.0	9.648	18.71	11.72	1.74
	55.83	36.95	73.80	-0.00	0.0649	11.19	492.2	390.84	0.0678	532.4	9.584	18.60	11.62	1.74
	56.83	36.92	73.85	0.00	0.0649	11.18	492.0	390.33	0.0673	527.4	9.493	18.41	11.47	1.75
	57.81	36.91	73.82	0.00	0.0649	11.18	492.1	390.56	0.0675	530.1	9.542	18.51	11.55	1.74
	58.83	36.97	73.77	-0.00	0.0650	11.19	492.3	391.08	0.0677	530.3	9.546	18.54	11.56	1.74
	59.83	36.93	73.82	-0.00	0.0649	11.18	492.0	390.45	0.0679	529.9	9.538	18.50	11.55	1.75
	60.83	36.92	73.85	0.00	0.0649	11.18	492.1	390.38	0.0682	535.6	9.641	18.70	11.71	1.75
	61.83	36.95	73.85	-0.00	0.0649	11.17	491.4	389.91	0.0691	544.2	9.796	19.00	11.95	1.75
	62.83	36.96	73.82	0.00	0.0648	11.16	491.0	389.72	0.0683	538.0	9.684	18.79	11.78	1.75
	63.91	37.02	73.85	-0.00	0.0649	11.17	491.3	389.90	0.0682	535.6	9.641	18.70	11.71	1.75
	64.81	37.03	73.77	0.00	0.0648	11.17	491.5	390.47	0.0682	535.6	9.641	18.72	11.71	1.74
	65.83	37.08	73.85	0.00	0.0649	11.18	491.7	390.33	0.0687	538.9	9.700	18.82	11.81	1.75
	66.81	37.04	73.85	0.00	0.0648	11.18	491.8	390.31	0.0703	556.2	10.011	19.42	12.29	1.75
	67.83	36.98	73.82	0.00	0.0648	11.15	490.8	389.57	0.0710	570.7	10.273	19.93	12.68	1.75
	68.83	36.99	73.85	0.00	0.0648	11.16	491.2	389.78	0.0705	561.2	10.102	19.60	12.42	1.75
	69.81	36.96	73.85	0.00	0.0649	11.17	491.5	389.97	0.0696	553.2	9.957	19.31	12.20	1.74
	70.83	36.96	73.85	0.00	0.0649	11.18	492.1	390.49	0.0709	561.8	10.113	19.62	12.44	1.75
	71.83	36.99	73.87	-0.00	0.0648	11.16	491.3	389.71	0.0716	573.8	10.328	20.03	12.76	1.75
	72.83	36.99	73.85	-0.00	0.0649	11.17	491.6	390.12	0.0723	581.6	10.469	20.31	12.97	1.75
	73.81	36.96	73.82	0.00	0.0648	11.16	490.9	389.69	0.0732	592.6	10.666	20.70	13.25	1.75
	74.83	36.98	73.90	0.00	0.0647	11.14	490.4	388.85	0.0735	596.6	10.740	20.82	13.36	1.75
	75.83	36.98	73.82	0.00	0.0646	11.13	489.8	388.81	0.0739	602.1	10.838	21.03	13.49	1.75
	76.83	36.97	73.82	-0.00	0.0647	11.12	489.5	388.55	0.0730	599.7	10.795	20.95	13.43	1.75
	77.83	37.05	73.82	0.00	0.0647	11.13	489.8	388.89	0.0725	584.2	10.516	20.41	13.04	1.75
	78.81	37.00	73.82	0.00	0.0646	11.12	489.3	388.48	0.0734	593.9	10.689	20.74	13.28	1.75
	79.83	37.00	73.82	-0.00	0.0645	11.10	488.4	387.69	0.0749	612.9	11.032	21.41	13.77	1.75
	80.91	36.91	73.85	-0.00	0.0644	11.08	487.7	386.91	0.0752	616.7	11.100	21.53	13.86	1.75
	81.83	36.95	73.80	-0.00	0.0645	11.08	487.6	387.17	0.0749	617.4	11.112	21.57	13.88	1.75
	82.83	36.93	73.85	-0.00	0.0645	11.10	488.4	387.47	0.0748	612.8	11.031	21.39	13.76	1.75
	83.81	36.87	73.82	0.00	0.0645	11.10	488.6	387.72	0.0749	613.8	11.048	21.43	13.78	1.75
	84.83	36.82	73.82	0.00	0.0646	11.12	489.1	388.09	0.0738	600.9	10.817	20.98	13.46	1.75
	85.81	36.83	73.85	0.00	0.0647	11.13	489.8	388.45	0.0731	592.1	10.658	20.66	13.23	1.75
	86.83	36.80	73.85	0.00	0.0646	11.12	489.3	388.07	0.0733	594.5	10.702	20.75	13.29	1.75
	87.81	36.79	73.82	0.00	0.0647	11.12	489.3	388.19	0.0734	594.4	10.699	20.75	13.29	1.75
	88.81	36.76	73.82	0.00	0.0647	11.13	489.8	388.51	0.0732	593.6	10.685	20.72	13.27	1.75
	89.81	36.76	73.85	0.00	0.0645	11.11	488.8	387.56	0.0737	597.9	10.763	20.86	13.38	1.75
	90.81	36.78	73.85	0.00	0.0644	11.08	487.6	386.69	0.0748	608.2	10.948	21.22	13.64	1.75
	91.89	36.82	73.85	0.00	0.0643	11.06	486.6	385.92	0.0757	624.7	11.245	21.80	14.06	1.75
	92.83	36.86	73.85	-0.00	0.0644	11.07	487.0	386.31	0.0752	617.0	11.106	21.53	13.87	1.75
	93.81	36.86	73.85	0.00	0.0644	11.07	487.1	386.35	0.0756	621.3	11.183	21.68	13.97	1.75
	94.83	36.88	73.85	0.00	0.0643	11.06	486.4	385.88	0.0761	627.4	11.292	21.90	14.12	1.75
	95.81	36.88	73.82	0.00	0.0643	11.06	486.8	386.28	0.0756	624.5	11.240	21.80	14.05	1.75
	96.81	36.87	73.85	0.00	0.0643	11.05	486.4	385.84	0.0761	626.8	11.283	21.88	14.11	1.75
	97.91	36.90	73.85	-0.00	0.0644	11.07	487.1	386.47	0.0757	625.0	11.251	21.82	14.07	1.75
	98.81	36.90	73.80	0.00	0.0644	11.07	487.2	386.80	0.0755	620.6	11.170	21.68	13.96	1.75
	99.83	36.90	73.85	-0.00	0.0643	11.06	486.5	385.93	0.0763	628.4	11.311	21.94	14.15	1.75
	100.81	36.88	73.85	0.00	0.0642	11.04	485.7	385.28	0.0766	636.1	11.449	22.20	14.34	1.75
	101.83	36.93	73.85	-0.00	0.0641	11.01	484.6	384.50	0.0770	639.5	11.511	22.33	14.42	1.75
	102.83	36.93	73.87	-0.00	0.0643	11.05	486.2	385.60	0.0762	629.4	11.329	21.96	14.17	1.75
	103.83	36.93	73.85	-0.00	0.0642	11.03	485.4	385.10	0.0774	640.6	11.531	22.36	14.45	1.75
	104.81	36.95	73.85	-0.00	0.0640	10.99	483.4	383.59	0.0786	659.7	11.875	23.03	14.90	1.75
	105.83	36.97	73.85	-0.00	0.0640	10.99	483.5	383.69	0.0787	659.5	11.872	23.03	14.90	1.75
	106.81	36.94	73.85	0.00	0.0639	10.97	482.6	382.86	0.0792	667.0	12.006	23.28	15.07	1.75
	107.81	36.94	73.90	0.00	0.0641	10.99	483.5	383.33	0.0786	661.9	11.915	23.09	14.96	1.75
	108.83	37.01	73.85	0.00	0.0640	11.00	483.8	383.96	0.0781	654.8	11.787	22.86	14.79	1.75
	109.83	36.93	73.87	-0.00	0.0642	11.02	485.0	384.62	0.0775	646.2	11.631	22.55	14.58	1.75
	110.81	36.97	73.85	0.00	0.0643	11.04	485.8	385.48	0.0775	644.8	11.606	22.51	14.55	1.75
	111.81	37.01	73.85	0.00	0.0642	11.02	485.0	384.90	0.0782	653.2	11.758	22.81	14.75	1.75
	112.81	36.97	73.85	0.00	0.0641	11.00	483.8	383.88	0.0792	667.5	12.015	23.31	15.09	1.75
	113.83	36.99	73.85	-0.00	0.0640	10.99	483.6	383.76	0.0798	673.7	12.126	23.52	15.23	1.75
	114.89	36.99	73.82	-0.00	0.0639	10.97	482.6	383.12	0.0803	681.0	12.259	23.79	15.40	1.75
	115.81	36.99	73.80	0.00	0.0640	10.98	483.0	383.56	0.0802	681.2	12.261	23.80	15.40	1.75
	116.81	36.97	73.85	0.00	0.0640	11.00	483.9	383.97	0.0794	670.5	12.070	23.41	15.16	1.75
	117.83	36.96	73.82	-0.00	0.0640	10.99	483.5	383.79	0.0799	674.9	12.148	23.57	15.26	1.75
	118.81	36.99	73.85	0.00	0.0638	10.94	481.2	381.83	0.0798	675.0	12.149	23.57	15.26	1.75
	119.81	36.95	73.87	0.00	0.0638	10.93	481.1	381.58	0.0811	689.3	12.408	24.06	15.59	1.75
	120.83	36.99	73.82	0.00	0.0638	10.94	481.3	382.11	0.0808	688.9	12.401	24.06	15.58	1.75
	121.81	36.99	73.85	0.00	0.0638	10.93	480.9	381.65	0.0807	685.6	12.342	23.94	15.51	1.75
	122.83	36.99	73.85	-0.00	0.0638	10.94	481.4	382.01	0.0802	680.7	12.253	23.77	15.39	1.75
	123.83	36.96	73.87	0.00	0.0638	10.94	481.2	381.66	0.0809	687.7	12.379	24.00	15.55	1.75
	124.81	36.96	73.85	0.00	0.0636	10.90	479.5	380.51	0.0822	702.6	12.648	24.53	15.89	1.75
	125.81	36.99	73.80	0.00	0.0637	10.92	480.7	381.70	0.0817	698.0	12.564	24.39	15.79	1.75
	126.81	36.93	73.85	-0.00	0.0637	10.92	480.6	381.32	0.0817	699.4	12.589	24.41	15.81	1.75
	127.83	37.02	73.85	-0.00	0.0637	10.93	480.7	381.53	0.0819	699.7	12.595	24.43	15.82	1.75
	128.81	37.01	73.85	-0.00	0.0636	10.90	479.8	380.76	0.0828	710.3	12.786	24.80	16.06	1.75
	129.83	37.03	73.85	-0.00	0.0634	10.86	477.8	379.20	0.0830	718.4	12.931	25.09	16.24	1.75
	130.81	37.01	73.85	0.00	0.0636	10.89	479.0	380.15	0.0821	706.1	12.709	24.66	15.97	1.75
	131.81	37.04	73.85	0.00	0.0635	10.89	479.0	380.19	0.0824	706.5	12.717	24.67	15.98	1.75
	132.80	37.01	73.85	0.00	0.0633	10.83	476.7	378.28	0.0851	736.7	13.260	25.72	16.63	1.75
	133.83	37.01	73.82	0.00	0.0632	10.81	475.8	377.73	0.0855	749.8	13.496	26.19	16.91	1.75
	134.81	37.01	73.82	0.00	0.0633	10.83	476.5	378.30	0.0854	746.7	13.440	26.08	16.84	1.75
	135.81	37.04	73.82	0.00	0.0633	10.82	476.0	377.95	0.0855	747.7	13.459	26.12	16.87	1.75
	136.83	37.01	73.85	-0.00	0.0632	10.81	475.6	377.40	0.0853	747.6	13.456	26.10	16.86	1.75
	137.81	37.06	73.85	0.00	0.0633	10.83	476.3	378.08	0.0850	741.1	13.340	25.88	16.73	1.75
	138.81	37.04	73.82	0.00	0.0633	10.83	476.4	378.22	0.0853	744.8	13.406	26.02	16.81	1.75
	139.81	37.01	73.85	-0.00	0.0632	10.80	475.2	377.14	0.0862	756.9	13.624	26.43	17.06	1.75
	140.81	37.01	73.82	0.00	0.0632	10.80	475.4	377.41	0.0858	753.2	13.558	26.31	16.98	1.75
	141.89	37.02	73.82	0.00	0.0631	10.79	474.8	376.91	0.0857	753.2	13.558	26.31	16.98	1.75
	142.81	37.06	73.85	0.00	0.0632	10.81	475.6	377.49	0.0855	749.1	13.483	26.16	16.90	1.75
	143.83	37.07	73.85	-0.00	0.0632	10.82	476.0	377.85	0.0852	744.1	13.393	25.99	16.79	1.75
	144.81	37.01	73.82	0.00	0.0632	10.81	475.6	377.56	0.0857	749.3	13.488	26.17	16.90	1.75
	145.81	37.03	73.85	0.00	0.0632	10.81	475.5	377.37	0.0859	754.0	13.572	26.33	17.00	1.75
	146.80	37.06	73.85	0.00	0.0632	10.80	475.4	377.35	0.0861	757.0	13.625	26.44	17.06	1.75
	147.81	37.03	73.85	0.00	0.0631	10.79	474.9	376.90	0.0865	762.8	13.730	26.64	17.18	1.75
	148.81	37.04	73.85	0.00	0.0632	10.81	475.8	377.65	0.0858	756.2	13.611	26.41	17.04	1.75
	149.88	37.01	73.82	0.00	0.0633	10.82	476.2	378.02	0.0858	752.2	13.540	26.28	16.96	1.75
	150.81	36.98	73.85	0.00	0.0632	10.81	475.7	377.51	0.0861	755.1	13.593	26.37	17.02	1.75
	151.83	36.99	73.85	-0.00	0.0632	10.80	475.1	377.03	0.0868	765.2	13.774	26.72	17.23	1.75
	152.89	36.96	73.85	-0.00	0.0630	10.76	473.5	375.75	0.0879	779.6	14.033	27.22	17.52	1.75
	153.83	36.99	73.82	-0.00	0.0630	10.76	473.3	375.73	0.0878	780.8	14.054	27.27	17.55	1.75
	154.81	36.99	73.82	0.00	0.0629	10.76	473.4	375.80	0.0876	777.1	13.989	27.14	17.48	1.75
	155.81	36.99	73.87	0.00	0.0629	10.75	472.9	375.17	0.0885	787.6	14.177	27.49	17.69	1.75
	156.80	37.07	73.87	0.00	0.0630	10.75	473.2	375.44	0.0885	789.3	14.207	27.56	17.72	1.75
	157.81	36.98	73.82	0.00	0.0630	10.78	474.3	376.51	0.0880	782.1	14.078	27.32	17.58	1.75
	158.89	37.01	73.87	0.00	0.0630	10.76	473.4	375.55	0.0872	775.3	13.955	27.06	17.44	1.75
	159.81	37.00	73.82	0.00	0.0631	10.78	474.5	376.66	0.0864	760.8	13.694	26.57	17.14	1.75
	160.81	37.03	73.80	0.00	0.0631	10.78	474.3	376.66	0.0866	763.4	13.741	26.68	17.19	1.75
	161.81	37.06	73.82	0.00	0.0631	10.79	474.6	376.87	0.0868	765.3	13.776	26.74	17.24	1.75
	162.81	37.03	73.82	-0.00	0.0631	10.79	474.8	376.93	0.0882	775.3	13.955	27.08	17.44	1.75
	163.80	37.08	73.82	0.00	0.0631	10.79	474.8	376.99	0.0874	775.7	13.962	27.10	17.45	1.75
	164.81	37.08	73.80	-0.00	0.0631	10.79	474.9	377.20	0.0879	775.0	13.950	27.09	17.44	1.75
	165.89	37.11	73.87	-0.00	0.0629	10.74	472.5	375.00	0.0892	798.7	14.376	27.89	17.91	1.75
	166.81	37.06	73.82	-0.00	0.0628	10.72	471.9	374.67	0.0902	809.3	14.568	28.28	18.12	1.75
	167.83	37.10	73.87	-0.00	0.0626	10.67	469.6	372.65	0.0922	837.4	15.072	29.24	18.67	1.75
	168.83	37.07	73.85	-0.00	0.0626	10.68	469.9	372.97	0.0918	834.2	15.016	29.14	18.61	1.75
	169.88	37.10	73.85	0.00	0.0628	10.71	471.0	373.92	0.0903	816.3	14.694	28.51	18.26	1.75
	170.80	37.10	73.82	0.00	0.0628	10.76	473.3	375.87	0.0903	803.8	14.468	28.08	18.01	1.75
	171.81	37.11	73.85	0.00	0.0628	10.71	471.4	374.22	0.0910	824.0	14.831	28.78	18.41	1.75
	172.81	37.05	73.85	0.00	0.0628	10.72	471.5	374.22	0.0904	816.4	14.695	28.51	18.26	1.75
