Jul 29 2015 at 13:59:11
Frequency: 1.00Hz.
CO2
Zero:  Value:0.95  Date:18 Mar 2005	 at 07:22:33	
Span:  Value:1.00  Date:18 Mar 2005	 at 07:25:09	
H2O
Zero:  Value:0.71  Date:18 Mar 2005	 at 07:52:31	
Span:  Value:0.99  Date:18 Mar 2005	 at 11:44:01	
	Relative Time	Temperature	Pressure	Aux Input	CO2 Absorptance	CO2 mmol/m3	CO2 mg/m3	CO2 umol/mol	H2O Absorptance	H2O mmol/m3	H2O g/m3	H2O mmol/mol	H2O(°C)	Cooler Voltage
	0.62	37.26	73.82	0.00	0.0669	11.62	511.2	406.12	0.0569	420.4	7.567	14.70	8.11	1.75
	1.62	37.29	73.85	0.00	0.0667	11.60	510.4	405.39	0.0559	409.4	7.369	14.31	7.72	1.75
	2.62	37.29	73.82	0.00	0.0667	11.60	510.4	405.56	0.0569	415.0	7.470	14.51	7.92	1.75
	3.62	37.25	73.77	0.00	0.0667	11.58	509.3	404.93	0.0568	413.5	7.444	14.47	7.87	1.75
	4.62	37.31	73.85	0.00	0.0666	11.56	508.8	404.20	0.0564	410.9	7.396	14.36	7.78	1.75
	5.62	37.31	73.85	0.00	0.0665	11.52	507.0	402.76	0.0562	407.8	7.340	14.25	7.66	1.75
	6.62	37.28	73.85	-0.00	0.0664	11.52	506.8	402.51	0.0559	408.1	7.346	14.26	7.68	1.75
	7.62	37.33	73.85	0.00	0.0665	11.52	507.1	402.81	0.0557	403.7	7.266	14.11	7.52	1.75
	8.70	37.34	73.82	0.00	0.0664	11.52	507.0	402.93	0.0559	403.6	7.266	14.11	7.52	1.75
	9.62	37.34	73.82	-0.00	0.0664	11.52	507.1	402.96	0.0560	405.3	7.295	14.17	7.58	1.75
	10.64	37.28	73.82	-0.00	0.0663	11.50	506.0	402.04	0.0562	409.4	7.369	14.31	7.72	1.75
	11.64	37.30	73.82	0.00	0.0663	11.49	505.5	401.71	0.0570	418.9	7.540	14.65	8.06	1.75
	12.62	37.28	73.85	0.00	0.0663	11.49	505.5	401.54	0.0577	424.8	7.646	14.85	8.26	1.75
	13.61	37.34	73.87	0.00	0.0664	11.51	506.3	402.07	0.0577	422.0	7.596	14.75	8.17	1.75
	14.64	37.34	73.82	0.00	0.0662	11.48	505.1	401.37	0.0605	454.9	8.188	15.91	9.28	1.75
	15.62	37.30	73.85	0.00	0.0662	11.48	505.1	401.26	0.0594	437.2	7.870	15.28	8.69	1.75
	16.61	37.28	73.80	0.00	0.0659	11.41	502.1	399.11	0.0645	485.2	8.734	16.97	10.24	1.75
	17.64	37.34	73.82	-0.00	0.0659	11.41	502.1	399.01	0.0644	497.4	8.952	17.39	10.61	1.75
	18.62	37.28	73.85	0.00	0.0661	11.45	503.7	400.09	0.0618	462.1	8.317	16.15	9.51	1.75
	19.62	37.40	73.87	-0.00	0.0661	11.44	503.5	399.99	0.0583	425.2	7.653	14.86	8.28	1.75
	20.61	37.34	73.85	0.00	0.0660	11.42	502.7	399.36	0.0602	448.4	8.071	15.67	9.07	1.75
	21.62	37.31	73.82	0.00	0.0661	11.44	503.5	400.07	0.0596	444.8	8.006	15.55	8.94	1.75
	22.62	37.31	73.85	-0.00	0.0661	11.44	503.5	399.99	0.0620	459.8	8.276	16.07	9.44	1.75
	23.62	37.29	73.85	-0.00	0.0660	11.42	502.6	399.25	0.0606	461.8	8.313	16.14	9.50	1.75
	24.62	37.28	73.85	0.00	0.0662	11.48	505.0	401.13	0.0608	455.2	8.193	15.91	9.29	1.75
	25.64	37.31	73.85	-0.00	0.0661	11.47	504.5	400.78	0.0609	455.4	8.197	15.92	9.29	1.75
	26.62	37.31	73.85	-0.00	0.0662	11.46	504.3	400.58	0.0604	450.4	8.107	15.74	9.13	1.75
	27.61	37.31	73.85	0.00	0.0662	11.47	504.7	400.95	0.0607	454.2	8.175	15.87	9.25	1.75
	28.64	37.28	73.82	-0.00	0.0661	11.45	504.0	400.43	0.0597	439.5	7.911	15.37	8.77	1.75
	29.62	37.31	73.82	0.00	0.0662	11.48	505.2	401.50	0.0607	451.3	8.123	15.78	9.16	1.75
	30.61	37.28	73.82	0.00	0.0663	11.49	505.4	401.57	0.0619	464.4	8.359	16.24	9.58	1.75
	31.64	37.25	73.85	-0.00	0.0663	11.49	505.6	401.56	0.0625	472.9	8.512	16.53	9.85	1.75
	32.62	37.31	73.85	0.00	0.0663	11.49	505.4	401.52	0.0619	470.8	8.474	16.46	9.79	1.75
	33.62	37.28	73.82	-0.00	0.0664	11.49	505.7	401.84	0.0635	479.1	8.624	16.75	10.05	1.75
	34.62	37.31	73.85	0.00	0.0662	11.47	504.6	400.85	0.0611	457.8	8.240	16.00	9.37	1.75
	35.64	37.31	73.85	-0.00	0.0664	11.50	506.1	402.01	0.0623	467.9	8.422	16.35	9.70	1.75
	36.62	37.34	73.85	-0.00	0.0663	11.50	506.0	402.00	0.0624	467.4	8.413	16.34	9.68	1.75
	37.61	37.28	73.85	0.00	0.0662	11.48	505.1	401.17	0.0618	463.2	8.337	16.19	9.54	1.75
	38.64	37.31	73.82	-0.00	0.0662	11.48	505.0	401.27	0.0622	469.0	8.442	16.40	9.73	1.75
	39.62	37.28	73.82	0.00	0.0664	11.51	506.4	402.36	0.0628	474.4	8.538	16.58	9.90	1.75
	40.62	37.29	73.85	-0.00	0.0666	11.56	508.7	404.10	0.0647	497.1	8.948	17.37	10.60	1.75
	41.61	37.29	73.85	0.00	0.0665	11.53	507.5	403.14	0.0638	486.1	8.749	16.99	10.27	1.75
	42.64	37.28	73.85	-0.00	0.0665	11.55	508.4	403.83	0.0642	492.7	8.869	17.22	10.47	1.75
	43.69	37.31	73.85	0.00	0.0665	11.54	507.7	403.31	0.0641	488.5	8.794	17.08	10.34	1.75
	44.62	37.31	73.85	-0.00	0.0665	11.55	508.3	403.81	0.0641	491.0	8.838	17.16	10.42	1.75
	45.62	37.31	73.82	0.00	0.0666	11.55	508.0	403.68	0.0643	487.6	8.776	17.05	10.31	1.75
	46.62	37.29	73.80	-0.00	0.0667	11.57	509.1	404.67	0.0654	500.4	9.007	17.50	10.70	1.75
	47.62	37.31	73.85	-0.00	0.0666	11.56	508.5	403.95	0.0650	500.2	9.004	17.48	10.70	1.75
	48.61	37.35	73.82	0.00	0.0666	11.57	509.2	404.71	0.0656	508.0	9.143	17.76	10.93	1.75
	49.62	37.34	73.82	0.00	0.0668	11.58	509.6	404.97	0.0680	519.2	9.346	18.16	11.26	1.75
	50.62	37.34	73.85	-0.00	0.0668	11.61	510.8	405.77	0.0678	530.8	9.555	18.56	11.59	1.75
	51.62	37.28	73.82	-0.00	0.0667	11.58	509.4	404.76	0.0670	524.6	9.444	18.34	11.41	1.75
	52.64	37.30	73.82	-0.00	0.0668	11.59	509.8	405.12	0.0672	521.6	9.389	18.24	11.33	1.75
	53.62	37.34	73.85	0.00	0.0668	11.61	510.8	405.84	0.0680	530.7	9.553	18.55	11.59	1.75
	54.62	37.36	73.85	0.00	0.0669	11.62	511.3	406.23	0.0691	546.8	9.842	19.11	12.04	1.75
	55.62	37.30	73.77	0.00	0.0667	11.59	509.8	405.37	0.0676	530.5	9.549	18.56	11.58	1.75
	56.62	37.36	73.85	0.00	0.0667	11.58	509.6	404.88	0.0672	526.3	9.474	18.40	11.47	1.75
	57.69	37.36	73.82	0.00	0.0668	11.62	511.2	406.32	0.0679	532.7	9.589	18.63	11.65	1.75
	58.61	37.36	73.85	0.00	0.0666	11.54	507.9	403.54	0.0668	521.0	9.378	18.21	11.31	1.75
	59.62	37.39	73.87	0.00	0.0667	11.58	509.7	404.82	0.0686	539.8	9.716	18.87	11.85	1.75
	60.62	37.30	73.82	-0.00	0.0666	11.57	508.9	404.38	0.0675	528.3	9.510	18.47	11.52	1.75
	61.61	37.32	73.85	0.00	0.0668	11.60	510.2	405.29	0.0692	549.8	9.896	19.22	12.12	1.75
	62.62	37.36	73.82	0.00	0.0667	11.58	509.4	404.89	0.0686	543.1	9.776	18.99	11.94	1.75
	63.62	37.34	73.82	0.00	0.0666	11.57	508.9	404.46	0.0677	532.1	9.577	18.61	11.63	1.75
	64.62	37.34	73.85	-0.00	0.0667	11.59	509.9	405.05	0.0691	547.8	9.860	19.15	12.07	1.75
	65.62	37.35	73.82	-0.00	0.0667	11.59	509.8	405.14	0.0689	542.7	9.769	18.98	11.93	1.75
	66.62	37.33	73.82	0.00	0.0668	11.62	511.2	406.28	0.0696	557.7	10.039	19.50	12.34	1.75
	67.61	37.36	73.85	0.00	0.0667	11.59	510.1	405.26	0.0685	544.0	9.792	19.02	11.96	1.75
	68.61	37.35	73.85	0.00	0.0665	11.53	507.5	403.17	0.0683	536.7	9.660	18.76	11.76	1.76
	69.62	37.30	73.82	0.00	0.0666	11.56	508.8	404.28	0.0694	550.5	9.909	19.25	12.14	1.75
	70.62	37.32	73.82	0.00	0.0667	11.58	509.5	404.91	0.0706	562.3	10.121	19.66	12.46	1.75
	71.61	37.36	73.82	0.00	0.0668	11.59	509.9	405.24	0.0711	566.2	10.191	19.80	12.57	1.75
	72.62	37.30	73.82	0.00	0.0667	11.59	509.9	405.21	0.0711	567.5	10.214	19.84	12.60	1.75
	73.62	37.34	73.85	0.00	0.0666	11.57	509.1	404.46	0.0701	558.6	10.054	19.53	12.37	1.75
	74.69	37.29	73.80	0.00	0.0668	11.60	510.4	405.73	0.0704	564.9	10.169	19.76	12.54	1.75
	75.61	37.33	73.82	0.00	0.0667	11.59	509.9	405.20	0.0703	559.6	10.072	19.57	12.39	1.75
	76.64	37.34	73.82	-0.00	0.0667	11.58	509.5	404.88	0.0705	565.8	10.184	19.78	12.56	1.75
	77.62	37.36	73.82	-0.00	0.0666	11.57	509.1	404.66	0.0707	568.1	10.225	19.87	12.62	1.75
	78.61	37.34	73.82	0.00	0.0667	11.57	509.0	404.53	0.0722	567.6	10.216	19.85	12.61	1.75
	79.61	37.36	73.82	0.00	0.0667	11.57	509.2	404.69	0.0720	580.6	10.450	20.30	12.96	1.75
	80.62	37.37	73.82	0.00	0.0667	11.57	508.9	404.47	0.0715	572.3	10.301	20.01	12.74	1.76
	81.62	37.35	73.82	-0.00	0.0666	11.57	509.3	404.74	0.0714	572.7	10.308	20.03	12.75	1.75
	82.61	37.33	73.82	0.00	0.0667	11.58	509.5	404.87	0.0721	580.7	10.453	20.31	12.96	1.75
	83.62	37.33	73.80	0.00	0.0668	11.59	509.9	405.39	0.0732	581.0	10.458	20.32	12.97	1.75
	84.61	37.33	73.82	0.00	0.0668	11.59	510.2	405.43	0.0727	587.9	10.581	20.56	13.14	1.75
	85.61	37.36	73.82	0.00	0.0667	11.59	510.1	405.41	0.0730	592.4	10.663	20.72	13.26	1.76
	86.62	37.33	73.80	0.00	0.0667	11.60	510.2	405.58	0.0731	592.7	10.668	20.73	13.27	1.76
	87.62	37.32	73.85	0.00	0.0668	11.59	510.1	405.20	0.0731	592.8	10.671	20.72	13.27	1.75
	88.62	37.33	73.80	-0.00	0.0668	11.59	509.9	405.34	0.0728	586.4	10.554	20.51	13.11	1.75
	89.62	37.33	73.82	0.00	0.0667	11.58	509.5	404.86	0.0731	595.3	10.715	20.81	13.34	1.75
	90.62	37.35	73.82	0.00	0.0668	11.60	510.5	405.70	0.0736	598.7	10.776	20.93	13.42	1.76
	91.61	37.35	73.85	0.00	0.0668	11.62	511.1	406.04	0.0742	612.9	11.032	21.42	13.79	1.76
	92.61	37.38	73.82	0.00	0.0667	11.59	509.8	405.21	0.0733	598.1	10.765	20.92	13.41	1.76
	93.62	37.38	73.82	0.00	0.0667	11.59	510.0	405.38	0.0735	599.7	10.795	20.97	13.45	1.76
	94.62	37.38	73.82	-0.00	0.0668	11.60	510.4	405.67	0.0744	603.0	10.854	21.09	13.54	1.76
	95.61	37.37	73.82	0.00	0.0668	11.62	511.4	406.45	0.0750	620.2	11.163	21.69	13.97	1.76
	96.61	37.36	73.82	0.00	0.0668	11.61	510.8	405.98	0.0742	611.1	11.000	21.37	13.74	1.76
	97.62	37.35	73.80	0.00	0.0666	11.57	509.0	404.64	0.0738	603.2	10.857	21.10	13.54	1.76
	98.62	37.38	73.82	-0.00	0.0667	11.59	509.9	405.28	0.0747	618.1	11.126	21.62	13.92	1.76
	99.61	37.38	73.80	0.00	0.0666	11.58	509.4	405.05	0.0746	615.1	11.071	21.52	13.84	1.76
	100.62	37.37	73.80	0.00	0.0667	11.56	508.7	404.48	0.0752	611.0	10.999	21.38	13.74	1.76
	101.61	37.38	73.82	0.00	0.0668	11.61	510.7	405.90	0.0762	628.3	11.309	21.97	14.17	1.76
	102.62	37.38	73.82	-0.00	0.0668	11.61	511.0	406.13	0.0772	644.2	11.596	22.53	14.56	1.76
	103.61	37.35	73.80	0.00	0.0668	11.59	510.1	405.51	0.0759	627.4	11.294	21.95	14.15	1.76
	104.62	37.38	73.82	-0.00	0.0668	11.60	510.5	405.79	0.0767	634.2	11.416	22.18	14.31	1.76
	105.61	37.34	73.85	0.00	0.0667	11.59	509.9	405.06	0.0764	632.6	11.387	22.11	14.27	1.76
	106.62	37.37	73.82	-0.00	0.0668	11.60	510.5	405.78	0.0772	635.4	11.437	22.22	14.34	1.76
	107.62	37.43	73.80	0.00	0.0668	11.60	510.4	405.89	0.0776	646.3	11.633	22.61	14.61	1.76
	108.61	37.40	73.82	0.00	0.0668	11.60	510.5	405.76	0.0771	642.3	11.561	22.46	14.51	1.76
	109.61	37.40	73.82	0.00	0.0668	11.60	510.6	405.85	0.0773	644.7	11.605	22.55	14.57	1.76
	110.61	37.40	73.82	0.00	0.0667	11.57	509.2	404.79	0.0767	635.5	11.438	22.23	14.35	1.76
	111.62	37.37	73.80	-0.00	0.0668	11.60	510.4	405.77	0.0771	642.6	11.566	22.48	14.52	1.76
	112.61	37.39	73.80	0.00	0.0668	11.60	510.3	405.78	0.0777	647.1	11.647	22.64	14.63	1.76
	113.61	37.40	73.80	0.00	0.0667	11.58	509.7	405.28	0.0773	643.8	11.589	22.53	14.55	1.76
	114.62	37.35	73.80	0.00	0.0667	11.59	510.0	405.48	0.0769	639.7	11.514	22.38	14.45	1.76
	115.61	37.37	73.82	0.00	0.0666	11.57	509.1	404.65	0.0768	637.7	11.479	22.30	14.40	1.76
	116.62	37.40	73.85	-0.00	0.0665	11.55	508.1	403.72	0.0775	644.9	11.609	22.55	14.58	1.76
	117.61	37.37	73.77	-0.00	0.0668	11.57	509.3	405.05	0.0791	658.0	11.844	23.03	14.89	1.76
	118.61	37.40	73.80	0.00	0.0666	11.56	508.4	404.29	0.0770	642.9	11.573	22.49	14.53	1.76
	119.62	37.40	73.82	-0.00	0.0666	11.56	508.8	404.46	0.0773	646.0	11.628	22.59	14.60	1.76
	120.62	37.37	73.80	-0.00	0.0667	11.58	509.6	405.18	0.0785	660.6	11.890	23.11	14.95	1.76
	121.62	37.39	73.82	0.00	0.0668	11.59	509.9	405.31	0.0783	657.4	11.834	22.99	14.87	1.76
	122.61	37.38	73.82	0.00	0.0667	11.60	510.4	405.65	0.0778	649.1	11.683	22.70	14.67	1.76
	123.61	37.43	73.82	0.00	0.0667	11.59	510.0	405.39	0.0781	653.1	11.756	22.84	14.77	1.76
	124.61	37.36	73.82	0.00	0.0666	11.55	508.3	403.97	0.0786	657.9	11.842	23.01	14.88	1.76
	125.62	37.43	73.85	0.00	0.0668	11.60	510.4	405.59	0.0799	666.7	12.001	23.31	15.09	1.76
	126.62	37.39	73.85	0.00	0.0667	11.59	509.9	405.20	0.0804	675.0	12.150	23.60	15.28	1.76
	127.62	37.43	73.85	0.00	0.0666	11.57	508.9	404.39	0.0792	668.7	12.037	23.38	15.14	1.76
	128.62	37.40	73.82	-0.00	0.0666	11.56	508.8	404.43	0.0804	680.9	12.256	23.81	15.42	1.76
	129.61	37.37	73.82	0.00	0.0667	11.59	510.0	405.37	0.0804	691.3	12.443	24.18	15.65	1.76
	130.62	37.46	73.80	-0.00	0.0669	11.62	511.1	406.46	0.0834	721.4	12.986	25.25	16.33	1.76
	131.61	37.39	73.82	0.00	0.0668	11.61	511.0	406.19	0.0833	721.9	12.994	25.25	16.33	1.76
	132.61	37.39	73.80	0.00	0.0669	11.62	511.1	406.40	0.0838	725.6	13.061	25.39	16.41	1.76
	133.62	37.43	73.80	-0.00	0.0669	11.61	510.9	406.31	0.0845	728.8	13.119	25.50	16.48	1.76
	134.62	37.43	73.82	0.00	0.0668	11.61	510.9	406.13	0.0840	730.0	13.140	25.53	16.51	1.76
	135.62	37.42	73.82	-0.00	0.0669	11.61	510.8	406.07	0.0846	735.7	13.243	25.73	16.63	1.76
	136.61	37.43	73.80	0.00	0.0669	11.61	511.0	406.36	0.0847	738.0	13.285	25.82	16.68	1.76
	137.61	37.43	73.80	0.00	0.0668	11.61	510.6	406.06	0.0844	731.6	13.168	25.60	16.54	1.76
	138.61	37.42	73.80	0.00	0.0667	11.58	509.7	405.29	0.0831	715.7	12.882	25.04	16.20	1.76
	139.61	37.43	73.80	0.00	0.0668	11.60	510.3	405.79	0.0827	711.1	12.799	24.88	16.10	1.76
	140.62	37.44	73.77	-0.00	0.0666	11.57	509.2	405.10	0.0818	706.2	12.711	24.72	15.99	1.76
	141.62	37.44	73.77	-0.00	0.0668	11.59	509.9	405.66	0.0822	704.6	12.683	24.66	15.95	1.76
	142.62	37.46	73.85	-0.00	0.0667	11.60	510.2	405.48	0.0819	705.2	12.694	24.66	15.97	1.76
	143.61	37.42	73.85	0.00	0.0669	11.61	511.0	406.08	0.0820	700.6	12.611	24.50	15.86	1.76
	144.62	37.47	73.82	-0.00	0.0668	11.60	510.5	405.86	0.0821	703.9	12.671	24.63	15.94	1.76
	145.61	37.47	73.82	0.00	0.0668	11.60	510.6	405.92	0.0826	709.1	12.764	24.81	16.06	1.76
	146.61	37.46	73.80	0.00	0.0668	11.61	510.7	406.17	0.0821	703.8	12.668	24.63	15.94	1.76
