Jul 29 2015 at 14:32:48
Frequency: 1.00Hz.
CO2
Zero:  Value:0.95  Date:18 Mar 2005	 at 07:22:33	
Span:  Value:1.00  Date:18 Mar 2005	 at 07:25:09	
H2O
Zero:  Value:0.71  Date:18 Mar 2005	 at 07:52:31	
Span:  Value:0.99  Date:18 Mar 2005	 at 11:44:01	
	Relative Time	Temperature	Pressure	Aux Input	CO2 Absorptance	CO2 mmol/m3	CO2 mg/m3	CO2 umol/mol	H2O Absorptance	H2O mmol/m3	H2O g/m3	H2O mmol/mol	H2O(°C)	Cooler Voltage
	0.80	36.58	73.77	-0.00	0.0667	11.61	511.0	405.39	0.0548	387.4	6.973	13.52	6.88	1.77
	1.77	36.58	73.77	0.00	0.0663	11.53	507.4	402.51	0.0553	390.5	7.030	13.63	7.00	1.77
	2.80	36.59	73.80	0.00	0.0664	11.46	504.1	399.76	0.0547	396.9	7.144	13.85	7.23	1.77
	3.80	36.55	73.82	0.00	0.0665	11.51	506.4	401.42	0.0544	389.5	7.011	13.59	6.96	1.77
	4.78	36.59	73.80	-0.00	0.0662	11.46	504.3	399.92	0.0545	393.5	7.084	13.73	7.11	1.77
	5.80	36.59	73.80	-0.00	0.0662	11.49	505.6	401.00	0.0551	397.7	7.159	13.88	7.27	1.77
	6.80	36.59	73.80	-0.00	0.0662	11.49	505.4	400.79	0.0552	401.6	7.229	14.01	7.41	1.77
	7.80	36.56	73.80	-0.00	0.0661	11.44	503.3	399.14	0.0573	415.7	7.483	14.51	7.91	1.77
	8.77	36.56	73.80	0.00	0.0661	11.45	503.8	399.54	0.0574	421.7	7.590	14.71	8.12	1.77
	9.78	36.59	73.80	0.00	0.0659	11.44	503.2	399.05	0.0577	423.8	7.629	14.79	8.20	1.77
	10.78	36.62	73.80	0.00	0.0658	11.39	501.3	397.60	0.0580	426.4	7.676	14.88	8.29	1.77
	11.84	36.61	73.77	0.00	0.0657	11.34	499.1	395.97	0.0587	427.1	7.688	14.91	8.31	1.77
	12.80	36.56	73.80	0.00	0.0657	11.37	500.1	396.57	0.0592	437.5	7.875	15.27	8.67	1.77
	13.78	36.60	73.77	0.00	0.0657	11.35	499.6	396.39	0.0596	440.3	7.925	15.37	8.76	1.77
	14.78	36.57	73.77	0.00	0.0656	11.34	499.0	395.87	0.0599	441.6	7.949	15.41	8.80	1.77
	15.77	36.63	73.77	0.00	0.0655	11.30	497.3	394.62	0.0604	449.3	8.087	15.69	9.06	1.77
	16.78	36.60	73.80	0.00	0.0655	11.32	498.1	395.07	0.0610	455.1	8.193	15.88	9.25	1.77
	17.78	36.62	73.77	0.00	0.0653	11.28	496.5	393.96	0.0610	457.6	8.238	15.98	9.33	1.77
	18.78	36.63	73.75	0.00	0.0653	11.27	495.9	393.63	0.0619	466.2	8.391	16.28	9.61	1.77
	19.78	36.61	73.77	0.00	0.0652	11.25	494.9	392.64	0.0621	468.9	8.440	16.37	9.69	1.77
	20.78	36.60	73.80	0.00	0.0652	11.25	495.1	392.71	0.0626	473.7	8.527	16.53	9.85	1.77
	21.78	36.61	73.77	-0.00	0.0652	11.24	494.7	392.54	0.0630	476.0	8.568	16.62	9.92	1.77
	22.77	36.61	73.80	0.00	0.0650	11.22	493.7	391.54	0.0633	479.1	8.624	16.72	10.02	1.77
	23.80	36.60	73.80	-0.00	0.0650	11.21	493.4	391.28	0.0633	482.3	8.682	16.83	10.12	1.77
	24.78	36.59	73.82	0.00	0.0650	11.21	493.3	391.11	0.0635	483.9	8.710	16.88	10.16	1.77
	25.77	36.58	73.77	0.00	0.0649	11.20	492.7	390.88	0.0637	486.1	8.751	16.97	10.23	1.77
	26.78	36.60	73.77	0.00	0.0650	11.20	492.6	390.83	0.0636	484.5	8.721	16.91	10.18	1.77
	27.78	36.61	73.74	0.00	0.0648	11.19	492.4	390.82	0.0640	486.2	8.752	16.98	10.24	1.77
	28.78	36.62	73.80	0.00	0.0649	11.21	493.2	391.17	0.0638	487.0	8.766	17.00	10.26	1.77
	29.78	36.62	73.80	-0.00	0.0648	11.16	491.2	389.64	0.0646	493.4	8.882	17.22	10.46	1.77
	30.78	36.61	73.77	0.00	0.0648	11.15	490.7	389.32	0.0645	493.6	8.885	17.23	10.46	1.77
	31.78	36.60	73.77	0.00	0.0648	11.17	491.3	389.78	0.0648	496.4	8.936	17.33	10.55	1.77
	32.78	36.60	73.77	-0.00	0.0647	11.15	490.6	389.20	0.0655	501.6	9.028	17.51	10.70	1.77
	33.80	36.61	73.80	0.00	0.0648	11.15	490.5	389.04	0.0656	505.8	9.104	17.65	10.83	1.77
	34.78	36.61	73.80	0.00	0.0648	11.16	491.1	389.52	0.0640	499.4	8.990	17.43	10.64	1.77
	35.77	36.58	73.77	0.00	0.0648	11.17	491.6	389.98	0.0610	449.8	8.096	15.70	9.08	1.77
	36.78	36.61	73.80	0.00	0.0648	11.18	491.8	390.03	0.0629	472.8	8.511	16.50	9.82	1.77
	37.78	36.68	73.77	0.00	0.0647	11.14	490.0	388.87	0.0650	502.9	9.052	17.56	10.75	1.77
	38.78	36.60	73.80	0.00	0.0649	11.18	491.8	390.08	0.0642	486.5	8.757	16.98	10.24	1.77
	39.78	36.58	73.77	-0.00	0.0647	11.16	491.1	389.57	0.0616	447.9	8.062	15.63	9.01	1.77
	40.78	36.59	73.80	0.00	0.0650	11.21	493.3	391.25	0.0565	410.6	7.390	14.33	7.73	1.77
	41.78	36.62	73.74	0.00	0.0651	11.23	494.1	392.15	0.0579	423.9	7.631	14.81	8.20	1.77
	42.77	36.68	73.80	0.00	0.0649	11.19	492.4	390.66	0.0603	442.8	7.970	15.46	8.85	1.77
	43.78	36.72	73.74	0.00	0.0648	11.20	492.6	391.15	0.0611	435.5	7.839	15.21	8.60	1.77
	44.86	36.67	73.80	-0.00	0.0648	11.15	490.7	389.24	0.0652	484.9	8.728	16.92	10.20	1.77
	45.78	36.70	73.80	-0.00	0.0646	11.12	489.4	388.31	0.0670	517.6	9.317	18.07	11.18	1.77
	46.77	36.72	73.77	0.00	0.0646	11.11	489.1	388.16	0.0679	530.3	9.545	18.52	11.55	1.77
	47.78	36.75	73.80	0.00	0.0645	11.09	487.9	387.16	0.0680	532.6	9.586	18.59	11.61	1.77
	48.78	36.69	73.80	-0.00	0.0645	11.09	488.0	387.14	0.0683	536.6	9.659	18.73	11.72	1.77
	49.77	36.67	73.77	0.00	0.0645	11.11	488.9	387.99	0.0686	539.6	9.713	18.84	11.81	1.77
	50.78	36.67	73.77	0.00	0.0644	11.10	488.3	387.50	0.0683	532.7	9.589	18.60	11.61	1.77
	51.78	36.70	73.77	0.00	0.0645	11.07	487.2	386.62	0.0696	546.6	9.839	19.09	12.00	1.77
	52.77	36.72	73.80	0.00	0.0643	11.06	486.7	386.18	0.0697	551.0	9.917	19.23	12.13	1.77
	53.78	36.67	73.77	0.00	0.0644	11.07	487.1	386.53	0.0696	552.3	9.941	19.28	12.16	1.77
	54.78	36.70	73.77	0.00	0.0644	11.05	486.2	385.88	0.0703	558.4	10.052	19.50	12.33	1.77
	55.78	36.67	73.77	0.00	0.0643	11.04	485.8	385.50	0.0709	564.4	10.160	19.71	12.49	1.77
	56.77	36.64	73.77	0.00	0.0643	11.06	486.6	386.16	0.0709	568.7	10.236	19.86	12.60	1.77
	57.78	36.67	73.77	0.00	0.0641	11.02	484.9	384.82	0.0706	562.3	10.122	19.63	12.43	1.77
	58.78	36.64	73.74	-0.00	0.0642	11.03	485.2	385.17	0.0710	567.4	10.214	19.82	12.57	1.77
	59.77	36.60	73.77	0.00	0.0642	11.03	485.2	384.99	0.0710	569.2	10.246	19.87	12.62	1.77
	60.77	36.65	73.80	0.00	0.0642	11.02	485.0	384.73	0.0710	565.9	10.186	19.75	12.53	1.77
	61.80	36.60	73.80	-0.00	0.0642	11.03	485.1	384.75	0.0706	562.1	10.118	19.62	12.43	1.77
	62.78	36.62	73.80	-0.00	0.0640	11.00	483.8	383.75	0.0712	570.7	10.273	19.92	12.66	1.77
	63.78	36.65	73.80	-0.00	0.0640	10.99	483.4	383.46	0.0713	570.6	10.270	19.92	12.66	1.77
	64.78	36.65	73.77	0.00	0.0640	10.97	482.8	383.15	0.0712	569.3	10.248	19.88	12.62	1.77
	65.78	36.62	73.80	0.00	0.0640	10.99	483.5	383.49	0.0714	572.6	10.306	19.98	12.71	1.78
	66.77	36.66	73.77	0.00	0.0641	11.01	484.4	384.41	0.0718	575.9	10.366	20.11	12.80	1.78
	67.78	36.63	73.77	0.00	0.0639	10.98	483.1	383.34	0.0721	579.6	10.433	20.24	12.89	1.77
	68.78	36.66	73.80	0.00	0.0641	10.98	483.0	383.15	0.0723	581.5	10.467	20.30	12.95	1.77
	69.77	36.60	73.80	0.00	0.0640	10.98	483.2	383.26	0.0728	587.1	10.567	20.49	13.09	1.77
	70.77	36.60	73.80	0.00	0.0639	10.95	481.9	382.17	0.0727	587.0	10.565	20.48	13.09	1.77
	71.78	36.63	73.75	0.00	0.0639	10.95	481.7	382.36	0.0727	587.0	10.567	20.50	13.09	1.78
	72.78	36.61	73.80	-0.00	0.0639	10.96	482.4	382.59	0.0729	590.2	10.623	20.60	13.17	1.78
	73.78	36.63	73.77	-0.00	0.0640	10.97	482.5	382.86	0.0730	592.2	10.660	20.68	13.22	1.78
	74.80	36.60	73.77	-0.00	0.0639	10.96	482.3	382.66	0.0735	598.4	10.772	20.89	13.38	1.78
	75.78	36.61	73.80	0.00	0.0638	10.93	481.0	381.46	0.0733	595.6	10.720	20.78	13.31	1.78
	76.78	36.63	73.77	0.00	0.0638	10.95	481.6	382.13	0.0732	595.4	10.717	20.79	13.31	1.78
	77.78	36.63	73.74	-0.00	0.0638	10.94	481.2	381.93	0.0735	597.9	10.762	20.88	13.37	1.78
	78.78	36.61	73.80	0.00	0.0639	10.93	481.1	381.55	0.0735	599.8	10.797	20.93	13.42	1.78
	79.78	36.64	73.80	0.00	0.0638	10.96	482.1	382.41	0.0737	601.9	10.834	21.01	13.47	1.78
	80.77	36.63	73.77	0.00	0.0637	10.93	480.8	381.53	0.0738	599.9	10.798	20.94	13.42	1.78
	81.80	36.61	73.77	-0.00	0.0638	10.94	481.1	381.75	0.0738	600.5	10.810	20.97	13.44	1.78
	82.78	36.58	73.82	0.00	0.0638	10.94	481.2	381.45	0.0742	605.5	10.899	21.12	13.56	1.78
	83.78	36.63	73.80	-0.00	0.0637	10.93	480.9	381.48	0.0743	607.2	10.930	21.19	13.61	1.78
	84.77	36.61	73.80	0.00	0.0636	10.90	479.7	380.50	0.0741	605.5	10.900	21.13	13.56	1.78
	85.86	36.60	73.77	-0.00	0.0637	10.94	481.2	381.80	0.0740	604.2	10.876	21.09	13.53	1.78
	86.78	36.63	73.77	-0.00	0.0637	10.91	480.0	380.87	0.0742	604.5	10.881	21.10	13.54	1.78
	87.77	36.63	73.80	0.00	0.0636	10.90	479.4	380.28	0.0741	604.9	10.887	21.11	13.55	1.78
	88.78	36.63	73.80	0.00	0.0636	10.91	480.1	380.80	0.0743	607.6	10.938	21.21	13.62	1.78
	89.78	36.63	73.77	0.00	0.0637	10.91	480.1	380.95	0.0746	608.4	10.951	21.24	13.64	1.78
	90.77	36.64	73.77	0.00	0.0636	10.90	479.8	380.69	0.0746	612.2	11.020	21.37	13.73	1.78
	91.78	36.67	73.80	0.00	0.0636	10.90	479.8	380.59	0.0746	610.3	10.985	21.30	13.69	1.78
	92.78	36.65	73.77	0.00	0.0636	10.90	479.7	380.66	0.0747	611.9	11.014	21.36	13.73	1.78
	93.77	36.65	73.77	0.00	0.0636	10.89	479.3	380.31	0.0749	614.0	11.053	21.44	13.78	1.78
	94.78	36.59	73.77	-0.00	0.0636	10.90	479.4	380.36	0.0746	612.9	11.032	21.39	13.75	1.78
	95.77	36.64	73.77	0.00	0.0636	10.88	478.9	380.03	0.0747	614.3	11.058	21.45	13.79	1.78
	96.78	36.65	73.77	0.00	0.0642	11.06	486.7	386.19	0.0643	465.0	8.369	16.23	9.57	1.78
	97.78	36.62	73.80	-0.00	0.0640	10.98	483.3	383.34	0.0685	536.8	9.662	18.73	11.73	1.78
	98.78	36.61	73.77	-0.00	0.0639	10.97	482.7	383.02	0.0687	523.8	9.429	18.29	11.36	1.78
	99.78	36.62	73.77	-0.00	0.0639	10.96	482.4	382.76	0.0695	555.1	9.992	19.38	12.24	1.78
	100.78	36.60	73.77	-0.00	0.0636	10.89	479.3	380.29	0.0742	604.5	10.880	21.10	13.54	1.78
	101.77	36.62	73.77	0.00	0.0633	10.82	476.2	377.85	0.0758	620.9	11.177	21.68	13.95	1.78
	102.78	36.59	73.80	0.00	0.0634	10.85	477.4	378.65	0.0762	632.4	11.383	22.07	14.23	1.78
	103.78	36.63	73.80	-0.00	0.0633	10.85	477.3	378.61	0.0762	631.4	11.365	22.04	14.21	1.78
	104.77	36.61	73.77	0.00	0.0633	10.85	477.2	378.64	0.0760	629.8	11.336	21.99	14.17	1.78
	105.77	36.64	73.80	0.00	0.0634	10.85	477.4	378.70	0.0759	629.2	11.325	21.96	14.16	1.78
	106.78	36.62	73.77	0.00	0.0637	10.92	480.3	381.07	0.0681	536.2	9.652	18.72	11.71	1.78
	107.77	36.68	73.77	0.00	0.0633	10.86	478.0	379.31	0.0732	578.5	10.412	20.20	12.87	1.78
	108.77	36.64	73.80	0.00	0.0632	10.85	477.6	378.85	0.0759	605.6	10.901	21.14	13.57	1.78
	109.78	36.64	73.77	-0.00	0.0632	10.79	474.9	376.81	0.0770	637.8	11.480	22.27	14.36	1.78
	110.77	36.72	73.80	0.00	0.0631	10.80	475.4	377.16	0.0774	639.7	11.515	22.33	14.42	1.78
	111.77	36.76	73.77	0.00	0.0632	10.81	475.8	377.71	0.0767	640.4	11.527	22.37	14.43	1.78
	112.78	36.78	73.77	-0.00	0.0631	10.80	475.1	377.18	0.0773	640.4	11.527	22.37	14.43	1.78
	113.78	36.76	73.77	-0.00	0.0633	10.82	476.1	377.95	0.0750	617.6	11.116	21.57	13.87	1.78
	114.77	36.79	73.77	0.00	0.0632	10.84	476.9	378.58	0.0758	616.5	11.097	21.53	13.85	1.78
	115.78	36.78	73.77	0.00	0.0635	10.84	477.1	378.72	0.0734	609.7	10.975	21.30	13.68	1.78
	116.78	36.83	73.77	0.00	0.0643	11.06	486.6	386.39	0.0625	474.1	8.534	16.56	9.87	1.78
	117.78	36.82	73.80	0.00	0.0646	11.06	486.6	386.23	0.0614	469.5	8.450	16.39	9.72	1.79
	118.77	36.83	73.77	0.00	0.0642	11.04	485.7	385.61	0.0658	509.5	9.171	17.80	10.95	1.78
	119.77	36.76	73.77	0.00	0.0641	11.02	484.8	384.82	0.0664	515.8	9.285	18.02	11.13	1.78
	120.77	36.79	73.74	0.00	0.0639	11.00	483.8	384.21	0.0672	519.1	9.344	18.14	11.23	1.78
	121.77	36.79	73.77	0.00	0.0637	10.93	480.8	381.70	0.0716	569.4	10.250	19.89	12.63	1.78
	122.78	36.78	73.80	-0.00	0.0637	10.92	480.5	381.31	0.0695	540.1	9.721	18.86	11.83	1.78
	123.78	36.77	73.72	0.00	0.0637	10.87	478.2	379.90	0.0701	575.1	10.352	20.10	12.78	1.78
	124.77	36.69	73.82	0.00	0.0634	10.88	478.9	379.80	0.0733	565.8	10.184	19.74	12.53	1.78
	125.78	36.67	73.77	-0.00	0.0637	10.94	481.2	381.87	0.0714	567.2	10.210	19.80	12.57	1.78
	126.77	36.62	73.77	0.00	0.0633	10.88	478.8	379.88	0.0744	591.1	10.640	20.64	13.20	1.78
	127.78	36.64	73.77	0.00	0.0631	10.80	475.2	377.05	0.0749	610.7	10.993	21.32	13.70	1.78
	128.78	36.63	73.80	0.00	0.0633	10.81	475.6	377.21	0.0744	615.0	11.070	21.46	13.80	1.79
	129.78	36.64	73.80	-0.00	0.0636	10.85	477.5	378.73	0.0707	595.7	10.722	20.79	13.31	1.79
	130.78	36.59	73.80	0.00	0.0639	10.94	481.4	381.76	0.0683	546.6	9.839	19.07	12.00	1.79
	131.77	36.60	73.77	0.00	0.0632	10.82	476.1	377.71	0.0753	608.9	10.960	21.26	13.65	1.79
	132.77	36.58	73.74	0.00	0.0628	10.76	473.6	375.88	0.0779	638.4	11.491	22.29	14.38	1.79
	133.77	36.55	73.80	0.00	0.0629	10.74	472.7	374.87	0.0782	654.0	11.772	22.82	14.75	1.78
	134.78	36.56	73.77	-0.00	0.0627	10.71	471.0	373.67	0.0785	659.0	11.862	23.00	14.87	1.79
	135.77	36.64	73.77	0.00	0.0628	10.72	471.6	374.18	0.0785	657.9	11.843	22.97	14.85	1.79
