Jul 29 2015 at 11:19:02
Frequency: 1.00Hz.
CO2
Zero:  Value:0.95  Date:18 Mar 2005	 at 07:22:33	
Span:  Value:1.00  Date:18 Mar 2005	 at 07:25:09	
H2O
Zero:  Value:0.71  Date:18 Mar 2005	 at 07:52:31	
Span:  Value:0.99  Date:18 Mar 2005	 at 11:44:01	
	Relative Time	Temperature	Pressure	Aux Input	CO2 Absorptance	CO2 mmol/m3	CO2 mg/m3	CO2 umol/mol	H2O Absorptance	H2O mmol/m3	H2O g/m3	H2O mmol/mol	H2O(°C)	Cooler Voltage
	0.92	31.82	73.40	-0.00	0.0659	11.43	502.7	394.64	0.0498	345.0	6.210	11.92	4.98	1.71
	1.92	31.87	73.41	-0.00	0.0657	11.38	500.9	393.29	0.0491	337.0	6.066	11.64	4.65	1.71
	2.91	31.86	73.43	0.00	0.0658	11.40	501.5	393.60	0.0494	341.2	6.141	11.78	4.82	1.71
	3.91	31.92	73.41	0.00	0.0657	11.37	500.3	392.84	0.0492	341.5	6.147	11.80	4.84	1.70
	4.91	31.89	73.43	0.00	0.0658	11.41	502.1	394.15	0.0500	349.4	6.289	12.07	5.17	1.70
	5.91	31.88	73.41	0.00	0.0657	11.38	500.7	393.10	0.0499	347.0	6.247	11.99	5.07	1.71
	6.92	31.91	73.43	-0.00	0.0657	11.36	500.0	392.51	0.0499	346.1	6.230	11.95	5.03	1.71
	7.91	31.88	73.46	0.00	0.0657	11.39	501.1	393.22	0.0501	347.8	6.260	12.01	5.10	1.71
	8.98	31.86	73.41	0.00	0.0658	11.39	500.9	393.31	0.0504	349.2	6.286	12.06	5.16	1.70
	9.91	31.89	73.41	0.00	0.0657	11.37	500.5	393.00	0.0510	354.8	6.386	12.26	5.39	1.71
	10.91	31.87	73.43	-0.00	0.0656	11.34	499.1	391.73	0.0504	351.2	6.322	12.13	5.24	1.70
	11.92	31.87	73.43	-0.00	0.0657	11.37	500.1	392.53	0.0510	357.0	6.427	12.33	5.48	1.70
	12.91	31.87	73.41	-0.00	0.0655	11.34	499.1	391.88	0.0507	356.1	6.410	12.30	5.44	1.71
	13.89	31.89	73.41	0.00	0.0656	11.35	499.4	392.15	0.0507	355.9	6.406	12.30	5.43	1.71
	14.91	31.87	73.41	-0.00	0.0656	11.35	499.2	391.93	0.0510	356.4	6.416	12.31	5.45	1.70
	15.89	31.89	73.41	0.00	0.0656	11.37	500.1	392.68	0.0512	359.0	6.461	12.40	5.56	1.70
	16.91	31.86	73.43	0.00	0.0656	11.36	500.0	392.40	0.0513	360.1	6.481	12.43	5.60	1.70
	17.89	31.89	73.43	0.00	0.0657	11.35	499.5	392.11	0.0515	360.8	6.495	12.46	5.63	1.70
	18.92	31.88	73.41	-0.00	0.0657	11.37	500.3	392.80	0.0517	362.9	6.531	12.54	5.71	1.71
	19.89	31.89	73.43	0.00	0.0657	11.38	500.9	393.18	0.0519	366.9	6.604	12.67	5.87	1.70
	20.91	31.82	73.41	0.00	0.0657	11.40	501.5	393.69	0.0523	370.5	6.668	12.80	6.01	1.70
	21.91	31.85	73.41	-0.00	0.0656	11.37	500.1	392.62	0.0522	367.2	6.609	12.68	5.88	1.70
	22.94	31.88	73.41	-0.00	0.0657	11.38	500.5	393.01	0.0525	370.1	6.662	12.79	6.00	1.71
	23.92	31.85	73.43	-0.00	0.0656	11.35	499.2	391.80	0.0524	369.5	6.651	12.76	5.97	1.70
	24.92	31.85	73.43	0.00	0.0656	11.36	500.0	392.43	0.0526	373.4	6.721	12.89	6.12	1.71
	25.98	31.87	73.41	0.00	0.0657	11.37	500.3	392.82	0.0530	377.2	6.790	13.03	6.27	1.70
	26.92	31.85	73.41	-0.00	0.0656	11.36	499.8	392.37	0.0530	377.0	6.785	13.02	6.26	1.71
	27.91	31.85	73.46	0.00	0.0656	11.36	499.8	392.14	0.0532	378.4	6.811	13.06	6.32	1.70
	28.91	31.85	73.41	0.00	0.0658	11.38	500.5	392.95	0.0535	379.9	6.839	13.12	6.37	1.70
	29.91	31.87	73.41	0.00	0.0657	11.37	500.5	392.94	0.0534	380.4	6.847	13.14	6.39	1.70
	30.92	31.88	73.43	-0.00	0.0657	11.37	500.4	392.75	0.0534	379.5	6.832	13.11	6.36	1.71
	31.92	31.84	73.41	0.00	0.0657	11.39	501.3	393.53	0.0537	384.5	6.920	13.28	6.55	1.71
	32.92	31.90	73.43	-0.00	0.0657	11.38	500.9	393.19	0.0540	386.6	6.959	13.35	6.63	1.71
	33.92	31.89	73.46	0.00	0.0657	11.38	500.7	392.85	0.0540	386.2	6.952	13.33	6.61	1.71
	34.91	31.88	73.43	0.00	0.0656	11.38	500.6	392.89	0.0543	389.9	7.018	13.47	6.75	1.71
	35.92	31.87	73.43	-0.00	0.0656	11.36	499.9	392.34	0.0542	388.0	6.984	13.40	6.68	1.71
	36.91	31.91	73.41	0.00	0.0657	11.38	500.8	393.26	0.0544	389.1	7.005	13.45	6.73	1.71
	37.94	31.90	73.41	-0.00	0.0657	11.39	501.2	393.58	0.0551	396.7	7.140	13.71	7.00	1.71
	38.92	31.92	73.41	0.00	0.0656	11.34	499.2	391.99	0.0549	395.7	7.123	13.67	6.97	1.71
	39.92	31.89	73.41	0.00	0.0656	11.34	499.1	391.90	0.0552	396.5	7.137	13.70	7.00	1.71
	40.91	31.92	73.43	0.00	0.0656	11.34	499.0	391.71	0.0551	396.5	7.137	13.70	7.00	1.71
	41.91	31.92	73.43	0.00	0.0656	11.37	500.1	392.57	0.0553	398.9	7.180	13.78	7.09	1.71
	42.91	31.91	73.41	0.00	0.0656	11.35	499.4	392.13	0.0558	404.7	7.285	13.98	7.30	1.71
	43.91	31.89	73.38	0.00	0.0656	11.38	500.5	393.16	0.0561	407.3	7.332	14.08	7.39	1.71
	44.91	31.86	73.43	0.00	0.0656	11.35	499.4	391.93	0.0563	407.2	7.330	14.06	7.39	1.71
	45.92	31.90	73.41	-0.00	0.0656	11.37	500.4	392.89	0.0566	412.9	7.432	14.26	7.59	1.71
	46.91	31.87	73.43	0.00	0.0656	11.36	499.8	392.27	0.0567	414.3	7.458	14.31	7.64	1.71
	47.91	31.92	73.43	0.00	0.0655	11.35	499.5	392.10	0.0566	414.6	7.462	14.32	7.65	1.71
	48.92	31.92	73.41	0.00	0.0656	11.35	499.5	392.24	0.0569	415.7	7.483	14.36	7.69	1.71
	49.92	31.89	73.43	-0.00	0.0656	11.36	500.0	392.49	0.0572	419.2	7.546	14.48	7.81	1.71
	50.92	31.89	73.41	-0.00	0.0656	11.35	499.4	392.17	0.0572	418.0	7.525	14.44	7.77	1.71
	51.92	31.90	73.43	-0.00	0.0657	11.38	500.8	393.13	0.0578	423.5	7.623	14.63	7.96	1.71
	52.92	31.89	73.43	0.00	0.0657	11.38	500.8	393.12	0.0580	425.0	7.650	14.68	8.01	1.71
	53.91	31.92	73.43	0.00	0.0657	11.40	501.6	393.72	0.0582	429.2	7.726	14.83	8.16	1.71
	55.00	31.91	73.43	-0.00	0.0657	11.39	501.2	393.44	0.0581	428.9	7.720	14.81	8.15	1.71
	55.91	31.90	73.41	0.00	0.0657	11.38	500.7	393.15	0.0586	433.4	7.801	14.97	8.30	1.71
	56.92	31.91	73.43	0.00	0.0658	11.39	501.3	393.50	0.0589	437.1	7.868	15.10	8.43	1.71
	57.92	31.89	73.43	0.00	0.0656	11.35	499.3	391.90	0.0587	432.5	7.785	14.94	8.27	1.71
	58.91	31.91	73.41	0.00	0.0657	11.38	500.8	393.29	0.0590	436.9	7.863	15.09	8.42	1.71
	59.92	31.91	73.41	0.00	0.0656	11.37	500.3	392.86	0.0590	436.7	7.861	15.09	8.41	1.71
	60.92	31.88	73.41	-0.00	0.0656	11.37	500.1	392.68	0.0591	438.1	7.887	15.14	8.46	1.71
	61.91	31.91	73.41	0.00	0.0656	11.37	500.1	392.71	0.0590	437.9	7.881	15.13	8.45	1.71
	62.92	31.91	73.46	-0.00	0.0656	11.36	499.9	392.26	0.0594	439.7	7.915	15.18	8.52	1.71
	63.92	31.96	73.41	-0.00	0.0657	11.38	500.6	393.15	0.0600	446.4	8.035	15.43	8.74	1.71
	64.91	31.94	73.41	0.00	0.0658	11.40	501.5	393.82	0.0601	449.7	8.095	15.54	8.85	1.71
	65.92	31.91	73.43	-0.00	0.0658	11.40	501.5	393.65	0.0604	452.3	8.142	15.62	8.93	1.71
	66.91	31.91	73.43	0.00	0.0657	11.37	500.2	392.66	0.0605	449.9	8.098	15.54	8.85	1.71
	67.92	31.89	73.43	0.00	0.0657	11.37	500.3	392.69	0.0602	450.4	8.107	15.56	8.87	1.71
	68.92	31.94	73.41	-0.00	0.0658	11.39	500.9	393.41	0.0607	451.8	8.132	15.61	8.92	1.71
	69.92	31.89	73.41	-0.00	0.0658	11.41	502.0	394.18	0.0610	459.7	8.275	15.88	9.17	1.71
	70.92	31.95	73.41	0.00	0.0657	11.37	500.4	393.01	0.0614	459.3	8.267	15.87	9.16	1.71
	71.92	31.94	73.43	-0.00	0.0658	11.40	501.5	393.69	0.0615	464.1	8.354	16.03	9.32	1.71
	72.91	31.94	73.41	0.00	0.0659	11.43	503.1	395.11	0.0620	467.4	8.412	16.15	9.42	1.71
	73.91	31.88	73.41	-0.00	0.0660	11.43	503.0	394.92	0.0621	467.2	8.410	16.14	9.41	1.71
	74.91	31.91	73.41	0.00	0.0659	11.42	502.3	394.43	0.0622	469.0	8.443	16.21	9.47	1.71
	75.91	31.91	73.43	-0.00	0.0659	11.41	501.9	393.99	0.0622	470.3	8.465	16.24	9.51	1.71
	76.91	31.90	73.43	0.00	0.0658	11.42	502.6	394.55	0.0620	470.9	8.476	16.26	9.53	1.71
	77.91	31.91	73.43	-0.00	0.0658	11.42	502.3	394.31	0.0623	471.7	8.490	16.29	9.56	1.71
	78.91	31.90	73.41	0.00	0.0658	11.41	502.0	394.20	0.0622	471.7	8.490	16.30	9.56	1.71
	79.91	31.93	73.43	0.00	0.0659	11.41	502.2	394.24	0.0623	471.9	8.494	16.30	9.56	1.71
	80.91	31.93	73.43	0.00	0.0659	11.43	502.7	394.66	0.0627	475.3	8.555	16.42	9.67	1.71
	81.91	31.92	73.41	0.00	0.0660	11.44	503.5	395.41	0.0627	475.8	8.565	16.44	9.69	1.71
	82.91	31.96	73.41	0.00	0.0660	11.44	503.4	395.39	0.0628	476.1	8.570	16.45	9.70	1.71
	83.91	31.93	73.41	0.00	0.0657	11.38	500.9	393.39	0.0626	475.9	8.566	16.44	9.69	1.71
	84.92	31.93	73.41	0.00	0.0655	11.36	499.6	392.36	0.0625	475.2	8.554	16.42	9.67	1.71
	85.91	31.97	73.43	0.00	0.0658	11.42	502.6	394.58	0.0629	479.7	8.635	16.57	9.81	1.71
	86.92	31.94	73.41	-0.00	0.0659	11.43	502.9	394.91	0.0631	480.1	8.642	16.59	9.82	1.71
	87.91	31.93	73.41	0.00	0.0659	11.42	502.3	394.46	0.0630	479.4	8.629	16.56	9.80	1.71
	88.92	31.94	73.38	0.00	0.0658	11.41	502.1	394.45	0.0632	482.0	8.676	16.66	9.88	1.71
	89.91	31.97	73.43	0.00	0.0659	11.42	502.5	394.51	0.0634	483.7	8.706	16.71	9.93	1.71
	90.91	31.93	73.43	-0.00	0.0658	11.42	502.4	394.39	0.0636	486.3	8.754	16.80	10.01	1.71
	91.91	31.96	73.38	0.00	0.0659	11.41	501.8	394.27	0.0640	486.9	8.764	16.83	10.03	1.71
	92.91	31.94	73.41	0.00	0.0661	11.44	503.5	395.41	0.0644	489.2	8.806	16.91	10.10	1.71
	93.91	31.98	73.41	0.00	0.0662	11.48	505.0	396.67	0.0648	498.8	8.979	17.24	10.39	1.72
	94.91	31.95	73.43	0.00	0.0661	11.47	504.8	396.33	0.0645	495.9	8.927	17.13	10.31	1.72
	95.91	31.94	73.43	0.00	0.0660	11.46	504.2	395.86	0.0647	498.1	8.967	17.21	10.37	1.71
	96.91	31.95	73.43	0.00	0.0660	11.44	503.4	395.23	0.0648	498.1	8.967	17.21	10.37	1.72
	97.91	31.98	73.43	0.00	0.0661	11.46	504.4	396.01	0.0649	500.1	9.002	17.28	10.43	1.71
	98.91	31.95	73.41	0.00	0.0661	11.47	504.8	396.41	0.0649	499.7	8.994	17.27	10.42	1.72
	99.92	31.90	73.46	-0.00	0.0660	11.43	503.0	394.70	0.0649	498.8	8.979	17.22	10.39	1.72
	100.92	31.98	73.41	-0.00	0.0661	11.45	504.0	395.84	0.0653	503.4	9.061	17.40	10.53	1.72
	101.92	31.93	73.43	-0.00	0.0657	11.41	502.0	394.07	0.0651	504.8	9.086	17.44	10.57	1.72
	102.92	31.97	73.41	-0.00	0.0660	11.44	503.2	395.23	0.0655	506.6	9.119	17.51	10.63	1.72
	103.91	31.99	73.43	0.00	0.0659	11.43	502.8	394.76	0.0654	506.6	9.119	17.50	10.63	1.72
	104.92	31.99	73.43	-0.00	0.0659	11.39	501.0	393.35	0.0655	504.5	9.081	17.43	10.57	1.72
	105.98	31.97	73.38	0.00	0.0661	11.46	504.1	396.06	0.0659	509.5	9.171	17.61	10.71	1.72
	106.91	31.97	73.43	0.00	0.0660	11.45	504.0	395.72	0.0658	510.8	9.194	17.65	10.75	1.72
	107.91	31.97	73.41	-0.00	0.0662	11.47	504.7	396.38	0.0664	514.2	9.256	17.77	10.85	1.72
	108.91	32.02	73.43	0.00	0.0663	11.49	505.6	397.04	0.0666	518.3	9.330	17.91	10.97	1.72
	109.98	31.97	73.38	0.00	0.0662	11.51	506.3	397.84	0.0668	521.7	9.390	18.04	11.07	1.72
	110.92	31.97	73.41	0.00	0.0662	11.50	506.2	397.58	0.0669	522.5	9.405	18.06	11.09	1.72
	111.91	32.03	73.41	0.00	0.0662	11.49	505.5	397.12	0.0668	522.0	9.396	18.04	11.08	1.72
	112.91	31.99	73.43	0.00	0.0663	11.50	505.9	397.26	0.0671	524.1	9.434	18.11	11.14	1.72
