Jul 29 2015 at 13:44:31
Frequency: 1.00Hz.
CO2
Zero:  Value:0.95  Date:18 Mar 2005	 at 07:22:33	
Span:  Value:1.00  Date:18 Mar 2005	 at 07:25:09	
H2O
Zero:  Value:0.71  Date:18 Mar 2005	 at 07:52:31	
Span:  Value:0.99  Date:18 Mar 2005	 at 11:44:01	
	Relative Time	Temperature	Pressure	Aux Input	CO2 Absorptance	CO2 mmol/m3	CO2 mg/m3	CO2 umol/mol	H2O Absorptance	H2O mmol/m3	H2O g/m3	H2O mmol/mol	H2O(°C)	Cooler Voltage
	0.00	36.66	73.87	0.00	0.0679	11.85	521.4	413.17	0.0498	342.2	6.160	11.93	5.09	1.73
	1.00	36.72	73.87	0.00	0.0675	11.74	516.7	409.55	0.0504	342.6	6.167	11.95	5.11	1.73
	1.98	36.72	73.85	0.00	0.0673	11.71	515.2	408.48	0.0503	345.2	6.213	12.04	5.22	1.73
	3.02	36.74	73.85	-0.00	0.0677	11.76	517.6	410.39	0.0502	348.2	6.267	12.15	5.34	1.73
	4.00	36.71	73.85	0.00	0.0680	11.90	523.8	415.29	0.0488	335.0	6.031	11.69	4.79	1.73
	4.98	36.77	73.85	0.00	0.0681	11.90	523.5	415.09	0.0508	350.8	6.314	12.24	5.45	1.73
	6.02	36.73	73.85	-0.00	0.0679	11.85	521.4	413.44	0.0498	345.5	6.220	12.05	5.23	1.73
	7.00	36.71	73.90	0.00	0.0679	11.81	519.7	411.73	0.0492	340.7	6.133	11.88	5.03	1.73
	7.98	36.73	73.85	0.00	0.0671	11.72	515.6	408.84	0.0496	345.3	6.216	12.05	5.23	1.73
	8.98	36.75	73.85	0.00	0.0675	11.67	513.5	407.19	0.0510	340.7	6.132	11.88	5.03	1.73
	10.00	36.79	73.87	0.00	0.0671	11.66	513.1	406.79	0.0503	346.6	6.239	12.09	5.28	1.73
	11.00	36.73	73.85	0.00	0.0671	11.65	512.8	406.59	0.0498	344.2	6.196	12.01	5.18	1.73
	11.98	36.73	73.85	0.00	0.0673	11.76	517.6	410.39	0.0514	364.0	6.552	12.70	5.98	1.73
	13.02	36.77	73.87	-0.00	0.0674	11.75	517.2	409.98	0.0527	368.5	6.634	12.85	6.16	1.73
	14.00	36.77	73.85	0.00	0.0673	11.73	516.0	409.14	0.0525	372.5	6.706	13.00	6.32	1.73
	15.00	36.72	73.85	-0.00	0.0672	11.71	515.3	408.59	0.0520	364.1	6.554	12.70	5.99	1.73
	15.98	36.76	73.82	0.00	0.0673	11.73	516.2	409.50	0.0535	375.5	6.759	13.11	6.44	1.73
	17.02	36.77	73.85	-0.00	0.0673	11.72	515.9	409.07	0.0527	373.5	6.723	13.03	6.36	1.73
	18.00	36.81	73.87	0.00	0.0674	11.74	516.6	409.60	0.0529	375.3	6.755	13.09	6.43	1.73
	18.98	36.77	73.87	0.00	0.0675	11.75	516.8	409.66	0.0532	374.4	6.740	13.06	6.40	1.73
	20.02	36.73	73.87	-0.00	0.0675	11.76	517.3	409.99	0.0537	378.9	6.819	13.21	6.56	1.73
	21.00	36.73	73.85	-0.00	0.0674	11.75	516.8	409.76	0.0527	373.2	6.718	13.02	6.35	1.73
	21.98	36.73	73.85	0.00	0.0675	11.77	517.7	410.48	0.0534	379.4	6.829	13.24	6.58	1.73
	22.98	36.76	73.85	0.00	0.0674	11.73	516.2	409.30	0.0536	382.2	6.880	13.33	6.69	1.74
	24.02	36.76	73.87	-0.00	0.0676	11.77	517.8	410.46	0.0550	392.9	7.071	13.70	7.09	1.73
	25.00	36.77	73.82	-0.00	0.0677	11.82	520.1	412.58	0.0560	407.1	7.328	14.21	7.61	1.73
	26.00	36.77	73.87	-0.00	0.0674	11.75	516.8	409.71	0.0541	388.0	6.984	13.53	6.91	1.74
	27.02	36.78	73.87	-0.00	0.0676	11.76	517.4	410.14	0.0553	394.9	7.108	13.77	7.17	1.74
	28.00	36.71	73.85	0.00	0.0678	11.85	521.4	413.35	0.0569	417.8	7.520	14.57	7.99	1.74
	29.00	36.71	73.85	-0.00	0.0679	11.87	522.2	414.02	0.0575	424.6	7.644	14.81	8.23	1.73
	30.00	36.74	73.87	-0.00	0.0679	11.86	521.7	413.50	0.0573	418.8	7.538	14.61	8.03	1.73
	31.08	36.74	73.85	-0.00	0.0680	11.86	521.7	413.64	0.0576	419.0	7.542	14.62	8.04	1.73
	32.00	36.74	73.87	-0.00	0.0683	11.96	526.1	417.04	0.0584	432.0	7.776	15.07	8.49	1.74
	33.00	36.74	73.87	-0.00	0.0683	11.94	525.4	416.46	0.0583	426.6	7.680	14.88	8.30	1.74
	34.00	36.74	73.90	0.00	0.0680	11.87	522.1	413.73	0.0567	411.4	7.405	14.34	7.77	1.74
	35.00	36.73	73.87	0.00	0.0681	11.87	522.2	413.95	0.0572	413.9	7.450	14.43	7.86	1.73
	36.00	36.71	73.90	-0.00	0.0684	11.97	526.8	417.35	0.0587	434.6	7.823	15.15	8.57	1.73
	36.98	36.74	73.87	0.00	0.0681	11.90	523.6	415.00	0.0574	420.7	7.573	14.67	8.10	1.73
	38.00	36.71	73.85	0.00	0.0682	11.94	525.3	416.48	0.0574	420.6	7.571	14.67	8.09	1.74
	38.98	36.69	73.82	0.00	0.0682	11.91	523.9	415.51	0.0577	421.3	7.584	14.70	8.12	1.74
	39.98	36.72	73.87	0.00	0.0681	11.89	523.1	414.62	0.0579	424.0	7.632	14.79	8.21	1.74
	41.00	36.68	73.82	0.00	0.0681	11.89	523.3	415.01	0.0582	427.5	7.696	14.92	8.33	1.73
	42.00	36.72	73.90	0.00	0.0680	11.89	523.0	414.35	0.0586	431.3	7.764	15.04	8.46	1.74
	42.98	36.72	73.85	0.00	0.0679	11.87	522.1	413.99	0.0587	432.6	7.786	15.09	8.50	1.73
	44.00	36.67	73.85	-0.00	0.0680	11.86	521.8	413.64	0.0588	431.5	7.766	15.05	8.46	1.73
	45.00	36.67	73.90	-0.00	0.0682	11.92	524.5	415.46	0.0594	440.2	7.924	15.35	8.76	1.74
	46.00	36.70	73.87	-0.00	0.0683	11.92	524.7	415.83	0.0596	440.5	7.930	15.36	8.77	1.74
	47.00	36.67	73.85	-0.00	0.0685	11.98	527.3	418.01	0.0606	451.6	8.128	15.75	9.14	1.73
	48.08	36.68	73.90	0.00	0.0684	11.97	526.6	417.17	0.0605	450.0	8.100	15.68	9.09	1.74
	49.00	36.70	73.87	-0.00	0.0685	11.97	526.7	417.42	0.0609	454.7	8.184	15.85	9.24	1.74
	50.00	36.67	73.85	-0.00	0.0686	12.00	527.9	418.48	0.0611	457.9	8.241	15.97	9.34	1.74
	50.98	36.67	73.87	0.00	0.0685	11.99	527.5	417.98	0.0610	456.4	8.215	15.91	9.30	1.74
	52.08	36.72	73.85	-0.00	0.0687	12.01	528.3	418.85	0.0617	462.8	8.331	16.15	9.51	1.74
	52.98	36.67	73.85	0.00	0.0687	12.03	529.3	419.60	0.0621	467.0	8.407	16.29	9.64	1.74
	53.98	36.69	73.87	0.00	0.0686	12.02	528.8	419.08	0.0621	468.0	8.423	16.32	9.67	1.74
	55.00	36.71	73.85	0.00	0.0687	12.02	529.0	419.42	0.0624	470.3	8.466	16.41	9.75	1.74
	55.98	36.69	73.85	0.00	0.0687	12.02	528.9	419.28	0.0626	473.3	8.519	16.51	9.84	1.74
	57.00	36.74	73.87	-0.00	0.0688	12.05	530.2	420.28	0.0631	478.3	8.609	16.68	10.00	1.74
	58.00	36.72	73.87	0.00	0.0690	12.09	532.1	421.75	0.0642	488.2	8.787	17.02	10.30	1.74
	59.00	36.74	73.85	0.00	0.0689	12.10	532.4	422.16	0.0642	493.3	8.879	17.21	10.46	1.74
	60.00	36.71	73.82	-0.00	0.0688	12.07	531.1	421.23	0.0641	492.0	8.855	17.17	10.42	1.74
	61.00	36.70	73.87	-0.00	0.0687	12.03	529.1	419.35	0.0638	485.9	8.746	16.94	10.23	1.74
	61.98	36.74	73.87	-0.00	0.0687	12.05	530.2	420.25	0.0642	492.7	8.869	17.18	10.44	1.74
	63.00	36.74	73.82	-0.00	0.0687	12.02	528.7	419.38	0.0640	487.9	8.783	17.03	10.30	1.74
	64.00	36.73	73.82	-0.00	0.0688	12.03	529.3	419.86	0.0651	496.5	8.937	17.33	10.56	1.74
	65.00	36.74	73.85	-0.00	0.0690	12.10	532.4	422.17	0.0656	506.8	9.123	17.68	10.87	1.74
	66.00	36.76	73.85	-0.00	0.0689	12.08	531.7	421.60	0.0660	509.8	9.177	17.79	10.95	1.74
	66.98	36.73	73.85	0.00	0.0689	12.07	531.1	421.10	0.0661	509.3	9.167	17.77	10.94	1.74
	67.98	36.79	73.87	0.00	0.0688	12.07	530.9	420.91	0.0658	509.6	9.173	17.78	10.95	1.74
	69.00	36.78	73.82	0.00	0.0689	12.05	530.3	420.66	0.0661	510.9	9.197	17.83	10.99	1.74
	69.98	36.79	73.87	0.00	0.0689	12.06	530.7	420.74	0.0663	511.1	9.200	17.83	11.00	1.74
	70.98	36.70	73.87	0.00	0.0686	12.03	529.1	419.35	0.0659	511.6	9.208	17.84	11.00	1.74
	71.98	36.73	73.87	0.00	0.0688	12.07	531.0	420.89	0.0664	516.0	9.288	18.00	11.14	1.74
	72.98	36.77	73.85	0.00	0.0689	12.10	532.3	422.13	0.0670	521.5	9.388	18.20	11.30	1.74
	73.98	36.77	73.85	0.00	0.0689	12.07	531.0	421.08	0.0673	524.0	9.432	18.28	11.37	1.74
	75.00	36.77	73.87	-0.00	0.0690	12.10	532.4	422.05	0.0677	529.3	9.527	18.46	11.52	1.74
	76.00	36.76	73.85	-0.00	0.0690	12.10	532.3	422.07	0.0678	530.6	9.550	18.51	11.56	1.74
	77.00	36.79	73.82	-0.00	0.0691	12.11	533.0	422.87	0.0683	535.7	9.643	18.70	11.70	1.74
	78.00	36.80	73.82	-0.00	0.0688	12.07	531.0	421.28	0.0684	537.1	9.667	18.75	11.74	1.74
	79.00	36.79	73.85	0.00	0.0691	12.13	533.6	423.19	0.0691	546.1	9.831	19.06	12.00	1.74
	80.00	36.79	73.85	-0.00	0.0689	12.09	531.9	421.85	0.0691	547.0	9.846	19.09	12.02	1.74
	80.98	36.79	73.85	0.00	0.0691	12.11	532.9	422.62	0.0695	549.7	9.895	19.18	12.10	1.74
	82.00	36.79	73.87	-0.00	0.0688	12.07	531.2	421.08	0.0690	545.3	9.816	19.02	11.97	1.74
	82.98	36.76	73.87	0.00	0.0688	12.04	529.7	419.89	0.0689	542.6	9.767	18.93	11.90	1.74
	84.00	36.73	73.85	-0.00	0.0688	12.05	530.2	420.36	0.0689	543.3	9.779	18.95	11.91	1.74
	85.00	36.76	73.85	-0.00	0.0690	12.09	532.0	421.87	0.0693	544.3	9.797	18.99	11.94	1.74
	86.00	36.72	73.85	0.00	0.0690	12.09	532.0	421.82	0.0700	555.2	9.993	19.37	12.24	1.74
	86.98	36.75	73.87	0.00	0.0691	12.11	533.0	422.51	0.0703	559.1	10.064	19.50	12.35	1.74
	87.98	36.76	73.82	0.00	0.0691	12.11	532.8	422.66	0.0705	561.2	10.101	19.59	12.41	1.74
	88.98	36.81	73.87	-0.00	0.0689	12.08	531.7	421.51	0.0703	560.2	10.083	19.54	12.38	1.74
	89.98	36.80	73.82	0.00	0.0690	12.09	531.9	421.96	0.0704	559.8	10.077	19.54	12.37	1.74
	90.98	36.81	73.85	0.00	0.0689	12.09	531.9	421.83	0.0708	566.0	10.189	19.75	12.54	1.74
	92.00	36.79	73.85	-0.00	0.0691	12.13	533.8	423.34	0.0712	572.3	10.301	19.97	12.71	1.74
	93.00	36.78	73.85	0.00	0.0688	12.05	530.2	420.48	0.0709	567.1	10.207	19.79	12.57	1.74
	93.98	36.81	73.85	0.00	0.0690	12.09	532.2	422.06	0.0716	572.2	10.299	19.97	12.71	1.74
	95.00	36.81	73.85	-0.00	0.0690	12.11	532.6	422.43	0.0714	573.2	10.318	20.00	12.73	1.74
	95.98	36.81	73.87	0.00	0.0689	12.07	531.3	421.21	0.0708	564.1	10.153	19.68	12.49	1.75
	97.00	36.77	73.85	-0.00	0.0689	12.08	531.3	421.31	0.0718	571.8	10.292	19.95	12.69	1.75
	97.98	36.78	73.82	0.00	0.0689	12.10	532.4	422.33	0.0717	577.0	10.386	20.14	12.83	1.74
	99.00	36.76	73.85	-0.00	0.0690	12.10	532.4	422.16	0.0722	580.7	10.453	20.26	12.93	1.74
	100.06	36.79	73.87	0.00	0.0691	12.11	533.0	422.53	0.0728	588.0	10.585	20.51	13.12	1.74
	100.98	36.76	73.85	0.00	0.0691	12.12	533.3	422.88	0.0733	595.5	10.718	20.78	13.31	1.74
	102.00	36.79	73.80	-0.00	0.0690	12.10	532.6	422.63	0.0731	593.4	10.681	20.72	13.26	1.75
	103.08	36.79	73.80	-0.00	0.0690	12.09	532.1	422.27	0.0727	583.7	10.507	20.38	13.01	1.75
	104.00	36.79	73.82	-0.00	0.0690	12.10	532.4	422.39	0.0730	591.9	10.655	20.66	13.22	1.74
	104.98	36.76	73.87	0.00	0.0690	12.09	532.0	421.68	0.0729	589.7	10.614	20.57	13.16	1.75
	105.98	36.73	73.85	0.00	0.0691	12.12	533.5	422.98	0.0732	592.6	10.667	20.67	13.24	1.75
	106.98	36.76	73.82	0.00	0.0691	12.13	533.8	423.43	0.0741	603.4	10.861	21.06	13.52	1.74
	107.98	36.79	73.87	0.00	0.0692	12.12	533.4	422.82	0.0744	607.4	10.934	21.19	13.62	1.75
	109.00	36.82	73.85	-0.00	0.0693	12.16	535.0	424.29	0.0750	613.6	11.045	21.41	13.78	1.75
	109.98	36.80	73.87	0.00	0.0691	12.12	533.4	422.88	0.0748	610.3	10.986	21.29	13.69	1.75
	111.00	36.81	73.85	-0.00	0.0692	12.13	533.6	423.23	0.0750	613.3	11.039	21.40	13.77	1.75
	112.00	36.76	73.82	-0.00	0.0691	12.14	534.1	423.66	0.0749	614.1	11.054	21.43	13.79	1.75
	112.98	36.80	73.82	-0.00	0.0690	12.11	533.0	422.83	0.0740	605.1	10.892	21.12	13.56	1.75
	113.98	36.80	73.87	0.00	0.0690	12.11	532.9	422.51	0.0738	602.6	10.847	21.02	13.50	1.75
	115.00	36.76	73.82	0.00	0.0691	12.11	532.9	422.74	0.0746	604.3	10.877	21.09	13.54	1.75
	116.06	36.73	73.87	0.00	0.0691	12.12	533.3	422.73	0.0753	619.1	11.144	21.59	13.91	1.75
	116.98	36.81	73.82	0.00	0.0691	12.12	533.2	423.06	0.0756	622.2	11.199	21.72	13.99	1.75
	117.98	36.76	73.82	0.00	0.0692	12.15	534.5	423.97	0.0757	624.4	11.240	21.79	14.04	1.75
	119.00	36.76	73.85	-0.00	0.0691	12.12	533.3	422.92	0.0759	626.5	11.278	21.86	14.10	1.75
	119.98	36.81	73.85	0.00	0.0692	12.15	534.8	424.15	0.0765	633.2	11.398	22.10	14.26	1.75
	120.98	36.78	73.87	0.00	0.0693	12.17	535.4	424.40	0.0769	638.4	11.491	22.27	14.39	1.75
	122.00	36.72	73.85	0.00	0.0693	12.16	535.2	424.35	0.0769	640.2	11.524	22.33	14.43	1.75
	122.98	36.75	73.85	0.00	0.0691	12.15	534.6	423.91	0.0759	636.5	11.458	22.21	14.34	1.75
	123.97	36.73	73.85	0.00	0.0692	12.16	535.1	424.31	0.0768	637.7	11.479	22.25	14.37	1.75
