Jul 29 2015 at 10:38:07
Frequency: 1.00Hz.
CO2
Zero:  Value:0.95  Date:18 Mar 2005	 at 07:22:33	
Span:  Value:1.00  Date:18 Mar 2005	 at 07:25:09	
H2O
Zero:  Value:0.71  Date:18 Mar 2005	 at 07:52:31	
Span:  Value:0.99  Date:18 Mar 2005	 at 11:44:01	
	Relative Time	Temperature	Pressure	Aux Input	CO2 Absorptance	CO2 mmol/m3	CO2 mg/m3	CO2 umol/mol	H2O Absorptance	H2O mmol/m3	H2O g/m3	H2O mmol/mol	H2O(°C)	Cooler Voltage
	0.66	28.54	73.41	0.00	0.0661	11.48	505.2	392.36	0.0530	377.7	6.799	12.91	6.13	1.75
	1.73	28.55	73.40	0.00	0.0662	11.47	504.7	391.95	0.0531	377.4	6.793	12.90	6.12	1.74
	2.66	28.53	73.38	0.00	0.0661	11.50	505.8	392.92	0.0531	378.3	6.810	12.93	6.16	1.75
	3.67	28.54	73.41	-0.00	0.0661	11.47	504.5	391.81	0.0530	377.5	6.796	12.90	6.12	1.74
	4.67	28.57	73.41	0.00	0.0663	11.50	506.1	393.07	0.0532	379.4	6.828	12.96	6.20	1.74
	5.67	28.57	73.41	0.00	0.0668	11.56	508.8	395.18	0.0539	383.2	6.898	13.10	6.34	1.74
	6.67	28.57	73.41	-0.00	0.0669	11.63	511.9	397.55	0.0546	389.7	7.014	13.32	6.58	1.74
	7.67	28.55	73.38	0.00	0.0669	11.66	513.2	398.71	0.0545	391.4	7.045	13.38	6.65	1.74
	8.73	28.55	73.41	0.00	0.0671	11.69	514.2	399.36	0.0549	395.6	7.121	13.52	6.80	1.74
	9.67	28.54	73.38	0.00	0.0672	11.72	515.5	400.45	0.0549	395.1	7.111	13.50	6.78	1.74
	10.67	28.50	73.41	-0.00	0.0673	11.72	515.8	400.54	0.0550	395.0	7.110	13.49	6.78	1.74
	11.66	28.59	73.43	0.00	0.0672	11.72	515.6	400.32	0.0549	395.7	7.122	13.52	6.81	1.74
	12.67	28.56	73.41	-0.00	0.0673	11.75	517.1	401.56	0.0551	397.9	7.162	13.60	6.89	1.74
	13.67	28.55	73.41	-0.00	0.0675	11.78	518.2	402.43	0.0556	400.5	7.209	13.69	6.98	1.74
	14.66	28.57	73.41	0.00	0.0674	11.74	516.7	401.29	0.0559	404.8	7.287	13.83	7.14	1.74
	15.66	28.56	73.41	0.00	0.0673	11.76	517.3	401.79	0.0567	414.1	7.453	14.15	7.47	1.74
	16.67	28.57	73.41	-0.00	0.0673	11.74	516.5	401.11	0.0563	410.3	7.385	14.02	7.34	1.74
	17.67	28.59	73.41	-0.00	0.0672	11.74	516.5	401.13	0.0568	415.8	7.484	14.21	7.53	1.74
	18.67	28.57	73.38	-0.00	0.0672	11.71	515.4	400.45	0.0572	420.8	7.574	14.38	7.71	1.74
	19.66	28.57	73.41	0.00	0.0672	11.73	515.9	400.69	0.0566	415.2	7.473	14.19	7.51	1.74
	20.67	28.56	73.41	0.00	0.0673	11.74	516.7	401.30	0.0564	412.7	7.428	14.10	7.42	1.74
	21.66	28.59	73.38	0.00	0.0671	11.70	514.9	400.04	0.0573	414.4	7.459	14.17	7.48	1.74
	22.67	28.61	73.41	0.00	0.0670	11.67	513.7	399.02	0.0572	420.2	7.564	14.36	7.69	1.74
	23.66	28.59	73.41	0.00	0.0669	11.66	512.9	398.33	0.0577	422.7	7.608	14.44	7.77	1.74
	24.67	28.60	73.38	0.00	0.0669	11.65	512.5	398.25	0.0572	417.9	7.522	14.29	7.61	1.74
	25.66	28.60	73.41	0.00	0.0668	11.63	511.7	397.49	0.0573	420.0	7.561	14.36	7.68	1.74
	26.66	28.60	73.41	0.00	0.0667	11.62	511.3	397.16	0.0574	420.7	7.572	14.38	7.70	1.74
	27.66	28.60	73.38	0.00	0.0667	11.60	510.3	396.54	0.0573	417.7	7.519	14.28	7.60	1.74
	28.75	28.60	73.43	-0.00	0.0666	11.60	510.4	396.33	0.0576	424.0	7.631	14.48	7.82	1.74
	29.67	28.62	73.41	-0.00	0.0666	11.57	509.3	395.60	0.0577	416.0	7.489	14.22	7.54	1.74
	30.67	28.60	73.41	-0.00	0.0665	11.55	508.0	394.61	0.0562	408.4	7.352	13.96	7.27	1.74
	31.73	28.62	73.43	0.00	0.0664	11.56	508.5	394.90	0.0561	411.0	7.399	14.04	7.37	1.74
	32.67	28.63	73.40	-0.00	0.0664	11.54	507.8	394.45	0.0568	412.9	7.432	14.11	7.43	1.74
	33.67	28.62	73.43	0.00	0.0664	11.54	507.9	394.38	0.0576	421.9	7.595	14.42	7.75	1.74
	34.66	28.62	73.43	0.00	0.0664	11.54	507.7	394.24	0.0578	427.0	7.686	14.59	7.92	1.74
	35.66	28.62	73.41	0.00	0.0664	11.53	507.3	394.04	0.0584	430.0	7.740	14.70	8.03	1.74
	36.66	28.62	73.41	0.00	0.0662	11.51	506.3	393.25	0.0577	428.6	7.714	14.65	7.98	1.74
	37.67	28.64	73.41	0.00	0.0663	11.52	506.9	393.74	0.0584	432.8	7.790	14.79	8.12	1.74
	38.66	28.67	73.41	0.00	0.0663	11.50	506.1	393.20	0.0587	433.2	7.797	14.81	8.14	1.74
	39.67	28.62	73.41	0.00	0.0661	11.49	505.6	392.75	0.0584	435.3	7.835	14.88	8.21	1.74
	40.66	28.64	73.41	0.00	0.0663	11.50	505.8	392.92	0.0588	433.3	7.800	14.81	8.14	1.74
	41.66	28.64	73.41	-0.00	0.0662	11.50	506.0	393.05	0.0598	438.6	7.895	14.99	8.32	1.74
	42.67	28.64	73.41	-0.00	0.0661	11.48	505.3	392.55	0.0601	446.2	8.032	15.25	8.57	1.74
	43.66	28.67	73.38	-0.00	0.0661	11.49	505.4	392.79	0.0602	454.1	8.174	15.53	8.83	1.74
	44.66	28.64	73.41	0.00	0.0662	11.47	504.7	392.08	0.0598	445.8	8.025	15.24	8.56	1.74
	45.66	28.64	73.41	0.00	0.0660	11.46	504.2	391.65	0.0617	456.3	8.213	15.60	8.90	1.74
	46.67	28.66	73.41	-0.00	0.0660	11.46	504.1	391.63	0.0619	465.9	8.385	15.92	9.21	1.74
	47.66	28.66	73.41	0.00	0.0659	11.42	502.3	390.22	0.0620	471.1	8.481	16.11	9.38	1.74
	48.67	28.68	73.41	-0.00	0.0657	11.39	501.0	389.22	0.0635	489.3	8.808	16.73	9.94	1.74
	49.66	28.70	73.41	0.00	0.0656	11.36	500.0	388.48	0.0648	491.3	8.844	16.80	10.01	1.74
	50.67	28.70	73.38	-0.00	0.0657	11.39	501.1	389.50	0.0623	469.6	8.453	16.06	9.33	1.74
	51.66	28.68	73.41	0.00	0.0657	11.38	500.6	388.97	0.0626	475.5	8.559	16.26	9.52	1.74
	52.66	28.70	73.41	0.00	0.0654	11.33	498.3	387.20	0.0654	507.8	9.140	17.36	10.50	1.74
	53.66	28.69	73.43	0.00	0.0657	11.38	500.9	389.07	0.0632	476.8	8.583	16.29	9.56	1.74
	54.67	28.70	73.43	-0.00	0.0654	11.31	497.6	386.48	0.0654	515.8	9.284	17.63	10.73	1.74
	55.67	28.70	73.41	-0.00	0.0650	11.25	495.2	384.75	0.0692	538.2	9.687	18.40	11.37	1.74
	56.66	28.70	73.38	0.00	0.0649	11.19	492.5	382.77	0.0701	562.1	10.118	19.22	12.03	1.74
	57.67	28.72	73.40	-0.00	0.0649	11.20	492.8	382.96	0.0697	553.8	9.969	18.94	11.81	1.74
	58.73	28.72	73.41	0.00	0.0649	11.18	491.9	382.22	0.0695	558.2	10.048	19.09	11.93	1.74
	59.66	28.70	73.43	0.00	0.0648	11.19	492.2	382.31	0.0699	553.5	9.964	18.92	11.80	1.74
	60.66	28.72	73.41	-0.00	0.0648	11.22	493.6	383.54	0.0696	539.3	9.707	18.44	11.41	1.74
	61.66	28.71	73.41	0.00	0.0649	11.22	493.8	383.71	0.0689	548.0	9.865	18.74	11.65	1.74
	62.66	28.76	73.38	0.00	0.0650	11.22	493.9	383.97	0.0681	538.3	9.689	18.41	11.38	1.74
	63.66	28.74	73.41	0.00	0.0647	11.15	490.5	381.16	0.0708	577.7	10.399	19.75	12.45	1.74
	64.66	28.72	73.38	0.00	0.0646	11.14	490.1	380.99	0.0717	574.2	10.335	19.64	12.36	1.74
	65.66	28.74	73.41	0.00	0.0646	11.14	490.0	380.78	0.0717	576.3	10.373	19.70	12.41	1.74
	66.66	28.76	73.43	0.00	0.0644	11.09	488.0	379.13	0.0729	588.1	10.587	20.10	12.72	1.74
	67.67	28.75	73.41	-0.00	0.0643	11.08	487.3	378.71	0.0728	590.3	10.626	20.19	12.78	1.74
	68.67	28.76	73.38	-0.00	0.0642	11.06	486.7	378.39	0.0729	590.6	10.631	20.20	12.79	1.74
	69.67	28.76	73.46	0.00	0.0640	11.02	484.7	376.44	0.0746	608.6	10.954	20.79	13.25	1.74
	70.66	28.76	73.38	0.00	0.0639	10.97	482.7	375.22	0.0756	624.4	11.239	21.36	13.64	1.74
	71.64	28.75	73.41	0.00	0.0640	10.99	483.5	375.78	0.0747	614.7	11.064	21.02	13.40	1.74
	72.66	28.78	73.38	0.00	0.0638	10.97	482.6	375.18	0.0754	620.0	11.161	21.21	13.53	1.74
	73.66	28.76	73.41	0.00	0.0637	10.95	481.9	374.52	0.0761	628.3	11.310	21.49	13.74	1.74
	74.67	28.77	73.38	-0.00	0.0637	10.93	480.8	373.78	0.0764	633.8	11.409	21.68	13.87	1.74
	75.73	28.78	73.38	0.00	0.0636	10.91	480.2	373.32	0.0772	639.9	11.519	21.89	14.02	1.74
	76.66	28.75	73.41	0.00	0.0634	10.87	478.4	371.80	0.0784	657.9	11.842	22.50	14.45	1.74
	77.66	28.78	73.41	-0.00	0.0635	10.89	479.0	372.25	0.0780	654.3	11.778	22.38	14.36	1.74
	78.66	28.78	73.38	0.00	0.0635	10.89	479.0	372.42	0.0778	652.0	11.736	22.30	14.31	1.74
	79.66	28.79	73.41	-0.00	0.0634	10.88	478.7	372.08	0.0783	655.4	11.798	22.41	14.39	1.74
	80.67	28.82	73.40	-0.00	0.0634	10.85	477.5	371.18	0.0787	664.3	11.957	22.72	14.60	1.74
	81.66	28.79	73.41	-0.00	0.0633	10.86	477.7	371.25	0.0792	669.0	12.041	22.88	14.71	1.74
	82.66	28.79	73.41	0.00	0.0633	10.87	478.1	371.57	0.0786	660.0	11.880	22.57	14.50	1.74
	83.67	28.79	73.41	-0.00	0.0632	10.84	476.9	370.67	0.0794	672.1	12.097	22.98	14.78	1.74
	84.66	28.79	73.38	0.00	0.0633	10.84	477.0	370.87	0.0789	666.7	12.000	22.81	14.65	1.74
	85.67	28.81	73.41	-0.00	0.0632	10.84	476.8	370.64	0.0789	666.1	11.989	22.78	14.64	1.74
	86.64	28.81	73.43	0.00	0.0630	10.79	474.8	368.94	0.0800	677.9	12.202	23.18	14.91	1.74
	87.66	28.81	73.41	0.00	0.0630	10.78	474.4	368.74	0.0801	681.3	12.264	23.30	14.99	1.74
	88.64	28.81	73.40	0.00	0.0629	10.73	472.2	367.04	0.0817	706.7	12.720	24.17	15.56	1.74
	89.66	28.84	73.38	0.00	0.0629	10.76	473.6	368.26	0.0819	700.4	12.607	23.96	15.42	1.74
	90.73	28.81	73.41	0.00	0.0630	10.78	474.1	368.53	0.0808	692.6	12.467	23.69	15.25	1.74
	91.66	28.85	73.41	0.00	0.0630	10.78	474.4	368.79	0.0810	694.4	12.500	23.75	15.29	1.74
	92.66	28.83	73.40	-0.00	0.0630	10.78	474.5	368.82	0.0810	692.1	12.457	23.67	15.24	1.74
	93.67	28.81	73.41	-0.00	0.0631	10.80	475.1	369.28	0.0805	684.1	12.313	23.39	15.05	1.74
	94.66	28.83	73.41	0.00	0.0631	10.81	475.7	369.74	0.0798	677.3	12.192	23.17	14.90	1.74
	95.66	28.83	73.41	0.00	0.0630	10.80	475.1	369.31	0.0796	676.3	12.174	23.13	14.88	1.74
	96.66	28.85	73.41	0.00	0.0632	10.80	475.3	369.45	0.0795	675.5	12.160	23.11	14.86	1.74
	97.67	28.86	73.38	-0.00	0.0631	10.80	475.4	369.68	0.0801	678.0	12.203	23.20	14.92	1.74
	98.66	28.85	73.41	0.00	0.0631	10.79	474.9	369.21	0.0804	684.4	12.320	23.41	15.06	1.74
	99.67	28.85	73.38	-0.00	0.0629	10.78	474.1	368.69	0.0808	686.9	12.364	23.50	15.12	1.74
	100.66	28.85	73.41	0.00	0.0631	10.78	474.2	368.61	0.0802	685.5	12.339	23.45	15.09	1.74
	101.66	28.85	73.35	0.00	0.0630	10.80	475.1	369.62	0.0801	679.5	12.232	23.26	14.95	1.74
	102.73	28.87	73.41	0.00	0.0630	10.78	474.2	368.65	0.0803	684.3	12.317	23.41	15.06	1.74
	103.64	28.87	73.41	0.00	0.0629	10.78	474.4	368.84	0.0808	689.2	12.406	23.58	15.17	1.74
	104.66	28.90	73.41	0.00	0.0630	10.78	474.1	368.64	0.0805	685.1	12.331	23.44	15.08	1.74
	105.66	28.87	73.41	-0.00	0.0629	10.76	473.3	367.92	0.0808	688.0	12.383	23.53	15.15	1.74
	106.67	28.87	73.41	-0.00	0.0629	10.75	473.1	367.77	0.0811	691.2	12.442	23.65	15.22	1.74
	107.64	28.89	73.41	0.00	0.0628	10.75	473.1	367.81	0.0807	687.2	12.370	23.51	15.13	1.74
	108.67	28.87	73.41	-0.00	0.0629	10.75	473.1	367.77	0.0812	694.2	12.496	23.75	15.29	1.74
	109.66	28.89	73.41	-0.00	0.0629	10.76	473.5	368.17	0.0804	685.2	12.334	23.44	15.08	1.74
	110.66	28.91	73.41	0.00	0.0629	10.76	473.4	368.06	0.0804	683.8	12.309	23.40	15.05	1.74
	111.64	28.89	73.41	0.00	0.0628	10.76	473.3	368.02	0.0805	682.9	12.292	23.36	15.03	1.74
	112.66	28.89	73.38	0.00	0.0629	10.76	473.6	368.34	0.0810	690.0	12.420	23.61	15.19	1.74
	113.66	28.89	73.38	-0.00	0.0628	10.74	472.5	367.46	0.0813	695.9	12.527	23.82	15.33	1.74
	114.67	28.91	73.43	0.00	0.0627	10.74	472.4	367.15	0.0814	698.9	12.580	23.90	15.39	1.74
	115.66	28.91	73.38	-0.00	0.0627	10.72	471.7	366.87	0.0822	706.3	12.713	24.17	15.56	1.74
	116.66	28.91	73.43	0.00	0.0625	10.70	470.6	365.81	0.0829	711.3	12.803	24.33	15.67	1.74
	117.66	28.93	73.41	-0.00	0.0626	10.69	470.5	365.84	0.0828	717.1	12.907	24.53	15.79	1.74
	118.66	28.90	73.41	0.00	0.0625	10.68	470.0	365.46	0.0831	721.2	12.981	24.67	15.88	1.74
	119.66	28.91	73.41	0.00	0.0626	10.69	470.5	365.84	0.0826	714.7	12.864	24.45	15.74	1.74
	120.66	28.91	73.41	-0.00	0.0626	10.71	471.3	366.42	0.0825	708.7	12.756	24.25	15.61	1.74
	121.73	28.91	73.41	-0.00	0.0626	10.70	470.9	366.11	0.0825	714.0	12.852	24.43	15.73	1.74
	122.66	28.93	73.41	-0.00	0.0626	10.69	470.4	365.79	0.0831	717.8	12.921	24.56	15.81	1.74
	123.67	28.93	73.40	-0.00	0.0622	10.63	467.6	363.63	0.0855	746.0	13.428	25.52	16.41	1.74
	124.64	28.93	73.38	0.00	0.0623	10.64	468.0	364.06	0.0848	744.3	13.398	25.48	16.38	1.74
	125.67	28.95	73.40	-0.00	0.0622	10.62	467.4	363.48	0.0851	745.9	13.426	25.52	16.41	1.74
	126.64	28.95	73.38	0.00	0.0622	10.60	466.6	362.93	0.0854	749.8	13.497	25.66	16.50	1.74
	127.67	28.94	73.41	-0.00	0.0623	10.63	467.6	363.59	0.0844	740.9	13.336	25.35	16.31	1.74
	128.66	28.95	73.38	-0.00	0.0624	10.65	468.5	364.42	0.0840	727.1	13.088	24.89	16.01	1.74
	129.66	28.95	73.35	-0.00	0.0623	10.63	467.8	364.02	0.0838	728.5	13.113	24.94	16.04	1.74
	130.64	28.96	73.43	0.00	0.0622	10.59	466.0	362.28	0.0852	751.2	13.521	25.69	16.52	1.74
	131.67	28.95	73.38	-0.00	0.0622	10.61	466.7	363.10	0.0846	735.4	13.237	25.17	16.19	1.74
	132.66	28.97	73.41	-0.00	0.0622	10.59	466.1	362.46	0.0848	742.6	13.366	25.41	16.34	1.74
	133.66	28.97	73.41	0.00	0.0622	10.61	466.9	363.07	0.0845	738.4	13.291	25.27	16.26	1.74
	134.66	28.97	73.38	-0.00	0.0622	10.61	466.9	363.20	0.0846	739.2	13.305	25.30	16.27	1.74
	135.66	28.97	73.38	-0.00	0.0622	10.61	466.7	363.06	0.0845	735.3	13.235	25.17	16.19	1.74
	136.73	28.94	73.41	-0.00	0.0621	10.59	466.1	362.43	0.0844	736.2	13.251	25.19	16.21	1.74
	137.64	28.96	73.40	0.00	0.0621	10.59	465.9	362.29	0.0842	735.8	13.245	25.18	16.20	1.74
	138.66	28.97	73.41	0.00	0.0620	10.56	464.5	361.22	0.0841	731.7	13.170	25.04	16.11	1.74
	139.66	28.99	73.41	-0.00	0.0620	10.56	464.4	361.20	0.0842	732.9	13.192	25.08	16.14	1.74
	140.66	28.99	73.38	0.00	0.0619	10.55	464.2	361.18	0.0844	735.2	13.233	25.17	16.19	1.74
	141.64	28.99	73.38	0.00	0.0620	10.55	464.3	361.25	0.0843	735.2	13.234	25.17	16.19	1.74
	142.67	29.00	73.41	-0.00	0.0618	10.52	463.0	360.14	0.0845	736.7	13.260	25.21	16.22	1.74
	143.66	29.03	73.41	-0.00	0.0619	10.54	463.8	360.73	0.0850	743.0	13.373	25.43	16.36	1.73
	144.66	29.00	73.41	0.00	0.0620	10.55	464.2	361.06	0.0857	750.4	13.507	25.68	16.51	1.74
	145.66	29.00	73.41	-0.00	0.0618	10.53	463.4	360.39	0.0856	751.5	13.526	25.72	16.53	1.74
	146.67	29.04	73.41	-0.00	0.0618	10.52	462.9	360.12	0.0853	749.7	13.495	25.66	16.50	1.74
	147.66	29.01	73.41	-0.00	0.0618	10.54	463.8	360.76	0.0849	745.9	13.427	25.53	16.42	1.74
	148.67	29.00	73.41	-0.00	0.0618	10.54	463.7	360.63	0.0849	741.8	13.353	25.39	16.33	1.74
	149.66	29.02	73.41	-0.00	0.0617	10.52	463.1	360.20	0.0858	755.2	13.594	25.85	16.61	1.74
	150.64	29.02	73.38	0.00	0.0618	10.52	462.8	360.12	0.0855	747.7	13.459	25.60	16.46	1.74
	151.66	29.02	73.38	-0.00	0.0617	10.51	462.5	359.89	0.0855	752.9	13.552	25.78	16.56	1.74
	152.64	29.02	73.38	0.00	0.0617	10.50	461.9	359.42	0.0859	754.4	13.580	25.83	16.60	1.74
	153.66	29.09	73.41	0.00	0.0616	10.48	461.2	358.83	0.0860	757.6	13.638	25.94	16.67	1.74
	154.66	29.05	73.40	-0.00	0.0615	10.47	460.5	358.19	0.0861	760.4	13.687	26.03	16.72	1.74
	155.66	29.03	73.43	0.00	0.0614	10.47	460.5	358.10	0.0860	763.1	13.736	26.11	16.78	1.74
	156.64	29.04	73.41	0.00	0.0614	10.42	458.7	356.79	0.0858	753.9	13.570	25.80	16.58	1.74
	157.66	29.04	73.38	0.00	0.0614	10.43	459.0	357.18	0.0863	761.7	13.711	26.08	16.75	1.74
	158.64	29.02	73.41	0.00	0.0614	10.44	459.2	357.20	0.0864	763.6	13.745	26.13	16.79	1.74
	159.73	29.04	73.41	-0.00	0.0613	10.41	458.2	356.39	0.0859	756.8	13.623	25.90	16.65	1.74
	160.66	29.02	73.41	0.00	0.0613	10.42	458.5	356.64	0.0855	751.6	13.529	25.72	16.54	1.74
