Jul 29 2015 at 14:11:53
Frequency: 1.00Hz.
CO2
Zero:  Value:0.95  Date:18 Mar 2005	 at 07:22:33	
Span:  Value:1.00  Date:18 Mar 2005	 at 07:25:09	
H2O
Zero:  Value:0.71  Date:18 Mar 2005	 at 07:52:31	
Span:  Value:0.99  Date:18 Mar 2005	 at 11:44:01	
	Relative Time	Temperature	Pressure	Aux Input	CO2 Absorptance	CO2 mmol/m3	CO2 mg/m3	CO2 umol/mol	H2O Absorptance	H2O mmol/m3	H2O g/m3	H2O mmol/mol	H2O(°C)	Cooler Voltage
	0.11	37.17	73.80	0.00	0.0663	12.31	541.5	430.26	0.0330	228.2	4.107	7.98	-0.57	1.78
	1.12	37.12	73.80	-0.00	0.0664	11.51	506.3	402.20	0.0337	208.2	3.748	7.28	-1.82	1.78
	2.09	37.10	73.80	0.00	0.0652	11.49	505.5	401.58	0.0324	204.7	3.685	7.15	-2.05	1.78
	3.12	37.13	73.82	-0.00	0.0662	11.41	502.2	398.87	0.0344	226.5	4.077	7.91	-0.67	1.78
	4.12	37.11	73.77	-0.00	0.0664	12.43	546.8	434.57	0.0348	204.4	3.679	7.15	-2.07	1.77
	5.11	37.11	73.82	0.00	0.0293	12.01	528.4	419.61	-0.0335	270.6	4.871	9.46	1.79	1.78
	6.11	37.07	73.80	-0.00	0.0666	12.88	566.7	450.14	0.0343	280.0	5.040	9.79	2.26	1.78
	7.11	37.07	73.80	0.00	0.0663	11.44	503.5	399.92	0.0343	213.2	3.837	7.45	-1.50	1.77
	8.12	37.13	73.80	-0.00	0.0661	11.47	504.7	400.99	0.0352	217.6	3.917	7.61	-1.22	1.77
	9.11	37.13	73.80	-0.00	0.0661	11.46	504.4	400.72	0.0356	220.3	3.966	7.70	-1.05	1.77
	10.12	37.13	73.80	0.00	0.0657	11.39	500.9	397.98	0.0369	230.6	4.151	8.06	-0.43	1.77
	11.12	37.13	73.80	-0.00	0.0658	11.43	503.0	399.60	0.0377	231.5	4.168	8.09	-0.37	1.77
	12.11	37.15	73.85	-0.00	0.0655	11.32	498.3	395.60	0.0394	252.0	4.536	8.80	0.80	1.77
	13.09	37.12	73.82	0.00	0.0654	11.32	498.2	395.68	0.0416	271.3	4.883	9.48	1.82	1.77
	14.11	37.15	73.80	0.00	0.0654	11.29	496.7	394.67	0.0448	289.5	5.212	10.12	2.74	1.77
	15.11	37.15	73.80	-0.00	0.0652	11.25	494.8	393.13	0.0454	304.0	5.472	10.63	3.43	1.77
	16.09	37.15	73.80	0.00	0.0654	11.28	496.4	394.42	0.0460	311.0	5.598	10.87	3.75	1.77
	17.12	37.15	73.80	-0.00	0.0653	11.28	496.4	394.38	0.0452	303.1	5.456	10.60	3.38	1.77
	18.11	37.12	73.80	0.00	0.0653	11.25	494.8	393.12	0.0470	317.5	5.715	11.10	4.04	1.77
	19.09	37.17	73.80	0.00	0.0654	11.31	497.6	395.34	0.0470	325.4	5.858	11.38	4.40	1.77
	20.09	37.19	73.80	0.00	0.0655	11.31	497.6	395.36	0.0494	336.6	6.058	11.77	4.88	1.77
	21.11	37.14	73.82	0.00	0.0653	11.32	498.0	395.55	0.0493	330.0	5.939	11.53	4.59	1.77
	22.11	37.18	73.82	0.00	0.0653	11.27	495.9	393.93	0.0489	339.4	6.109	11.86	5.00	1.77
	23.11	37.18	73.77	-0.00	0.0652	11.26	495.6	393.93	0.0486	338.1	6.086	11.83	4.94	1.77
	24.12	37.12	73.82	-0.00	0.0650	11.24	494.6	392.79	0.0496	341.7	6.150	11.94	5.09	1.77
	25.12	37.18	73.80	-0.00	0.0647	11.18	492.0	390.93	0.0496	339.6	6.112	11.87	5.00	1.77
	26.09	37.16	73.82	0.00	0.0649	11.19	492.6	391.23	0.0489	334.9	6.028	11.70	4.81	1.77
	27.09	37.20	73.80	0.00	0.0647	11.12	489.1	388.65	0.0521	349.9	6.298	12.23	5.44	1.77
	28.11	37.20	73.77	0.00	0.0649	11.19	492.2	391.30	0.0539	384.9	6.928	13.46	6.82	1.77
	29.11	37.19	73.75	0.00	0.0648	11.17	491.4	390.75	0.0569	419.5	7.550	14.68	8.07	1.77
	30.09	37.19	73.82	0.00	0.0648	11.18	491.8	390.65	0.0577	423.3	7.619	14.79	8.21	1.77
	31.11	37.16	73.77	0.00	0.0649	11.17	491.4	390.59	0.0567	417.0	7.506	14.58	7.99	1.77
	32.11	37.19	73.82	0.00	0.0647	11.16	490.9	389.90	0.0562	411.0	7.398	14.37	7.77	1.77
	33.09	37.20	73.80	0.00	0.0649	11.18	491.7	390.75	0.0567	414.5	7.461	14.49	7.90	1.77
	34.09	37.18	73.80	0.00	0.0647	11.16	491.1	390.23	0.0571	419.3	7.548	14.66	8.07	1.77
	35.12	37.17	73.77	-0.00	0.0645	11.13	489.6	389.18	0.0575	418.1	7.526	14.62	8.02	1.77
	36.11	37.14	73.80	0.00	0.0640	11.07	487.2	387.09	0.0608	431.0	7.759	15.07	8.47	1.77
	37.09	37.15	73.80	0.00	0.0637	10.97	482.7	383.51	0.0608	461.0	8.298	16.12	9.47	1.77
	38.11	37.12	73.82	0.00	0.0641	11.00	484.2	384.53	0.0611	458.8	8.259	16.03	9.40	1.77
	39.11	37.05	73.80	0.00	0.0643	11.03	485.3	385.50	0.0616	460.9	8.296	16.11	9.46	1.77
	40.11	37.08	73.82	-0.00	0.0643	11.06	486.7	386.49	0.0614	453.5	8.164	15.85	9.22	1.77
	41.09	37.07	73.80	0.00	0.0643	11.04	485.8	385.89	0.0621	481.9	8.674	16.84	10.13	1.77
	42.11	37.06	73.82	0.00	0.0643	11.06	486.6	386.39	0.0606	453.0	8.153	15.82	9.20	1.77
	43.12	37.06	73.80	-0.00	0.0643	11.05	486.4	386.33	0.0600	439.4	7.910	15.36	8.75	1.77
	44.11	37.04	73.80	0.00	0.0644	11.06	486.7	386.60	0.0595	439.6	7.912	15.36	8.76	1.77
	45.12	37.08	73.82	0.00	0.0644	11.10	488.2	387.70	0.0603	453.8	8.168	15.86	9.23	1.77
	46.12	37.06	73.80	-0.00	0.0646	11.12	489.2	388.60	0.0608	452.9	8.153	15.83	9.20	1.77
	47.11	37.05	73.80	0.00	0.0646	11.11	488.8	388.25	0.0607	458.6	8.254	16.03	9.38	1.77
	48.11	37.06	73.82	0.00	0.0646	11.13	489.7	388.85	0.0603	451.1	8.120	15.76	9.14	1.77
	49.12	37.05	73.80	0.00	0.0646	11.11	488.9	388.28	0.0616	464.5	8.361	16.23	9.58	1.77
	50.12	37.04	73.82	-0.00	0.0647	11.12	489.3	388.51	0.0616	466.4	8.396	16.29	9.64	1.77
	51.11	37.02	73.80	0.00	0.0646	11.13	489.6	388.81	0.0621	467.9	8.421	16.35	9.68	1.77
	52.12	36.97	73.80	0.00	0.0645	11.09	488.1	387.56	0.0640	481.8	8.673	16.83	10.12	1.77
	53.19	36.94	73.85	0.00	0.0645	11.11	488.8	387.79	0.0630	477.3	8.591	16.66	9.97	1.77
	54.11	37.02	73.82	0.00	0.0644	11.05	486.4	386.16	0.0643	496.2	8.932	17.33	10.56	1.77
	55.11	37.02	73.77	0.00	0.0646	11.08	487.7	387.44	0.0638	496.3	8.934	17.35	10.56	1.77
	56.12	37.03	73.80	0.00	0.0646	11.09	488.2	387.72	0.0651	498.4	8.971	17.42	10.63	1.77
	57.12	37.03	73.80	-0.00	0.0648	11.14	490.2	389.34	0.0652	502.2	9.040	17.55	10.74	1.77
	58.11	37.06	73.80	0.00	0.0648	11.18	491.8	390.62	0.0644	489.5	8.811	17.11	10.36	1.77
	59.12	37.04	73.82	0.00	0.0645	11.12	489.5	388.60	0.0659	506.9	9.125	17.71	10.88	1.77
	60.12	37.08	73.82	0.00	0.0646	11.12	489.5	388.69	0.0659	508.2	9.148	17.76	10.92	1.77
	61.11	37.08	73.80	0.00	0.0646	11.08	487.6	387.30	0.0656	524.3	9.437	18.32	11.39	1.77
	62.14	37.07	73.80	-0.00	0.0643	11.07	487.3	387.05	0.0683	525.9	9.466	18.38	11.44	1.77
	63.12	37.11	73.80	0.00	0.0642	11.02	484.8	385.13	0.0696	552.4	9.943	19.31	12.19	1.77
	64.12	37.11	73.80	-0.00	0.0643	11.02	485.0	385.33	0.0685	545.1	9.811	19.05	11.98	1.77
	65.11	37.06	73.80	0.00	0.0641	11.02	485.0	385.27	0.0694	544.6	9.803	19.03	11.97	1.77
	66.12	37.11	73.80	0.00	0.0642	11.03	485.2	385.43	0.0691	544.7	9.805	19.04	11.97	1.77
	67.11	37.11	73.80	0.00	0.0642	11.03	485.2	385.42	0.0690	547.0	9.845	19.12	12.03	1.77
	68.11	37.08	73.82	0.00	0.0644	11.06	486.6	386.40	0.0677	534.0	9.612	18.66	11.67	1.77
	69.12	37.08	73.80	0.00	0.0642	11.03	485.4	385.57	0.0684	542.6	9.766	18.96	11.91	1.77
	70.19	37.10	73.82	0.00	0.0638	10.95	481.6	382.47	0.0715	571.2	10.281	19.96	12.69	1.77
	71.11	37.03	73.80	0.00	0.0641	10.99	483.6	384.11	0.0693	554.4	9.979	19.37	12.24	1.77
	72.11	37.06	73.80	0.00	0.0644	11.06	486.5	386.46	0.0687	541.9	9.753	18.94	11.89	1.77
	73.12	37.05	73.80	0.00	0.0642	10.98	483.1	383.69	0.0693	559.0	10.062	19.53	12.36	1.77
	74.12	37.06	73.77	0.00	0.0641	10.98	483.3	384.03	0.0704	566.7	10.201	19.81	12.57	1.77
	75.12	37.01	73.77	-0.00	0.0642	11.03	485.2	385.44	0.0711	566.4	10.194	19.80	12.56	1.77
	76.20	37.04	73.77	-0.00	0.0643	11.03	485.4	385.65	0.0696	558.0	10.044	19.51	12.34	1.77
	77.12	37.08	73.80	-0.00	0.0641	11.02	485.0	385.25	0.0712	562.0	10.116	19.64	12.45	1.77
	78.11	37.02	73.82	0.00	0.0644	11.01	484.4	384.60	0.0687	573.7	10.326	20.04	12.76	1.77
	79.12	36.97	73.82	-0.00	0.0640	10.99	483.4	383.71	0.0722	582.8	10.490	20.35	12.99	1.77
	80.12	36.98	73.85	-0.00	0.0642	11.00	483.9	384.02	0.0706	571.0	10.277	19.94	12.68	1.77
	81.12	36.96	73.82	-0.00	0.0641	11.01	484.2	384.35	0.0705	565.2	10.173	19.74	12.53	1.77
	82.11	36.99	73.80	0.00	0.0638	10.95	481.9	382.69	0.0734	595.7	10.722	20.81	13.33	1.77
	83.14	37.00	73.80	-0.00	0.0639	10.95	481.7	382.50	0.0736	603.1	10.855	21.07	13.52	1.77
	84.11	37.06	73.82	0.00	0.0644	11.05	486.3	386.16	0.0704	561.5	10.108	19.62	12.43	1.77
	85.11	37.11	73.77	0.00	0.0643	11.08	487.5	387.42	0.0711	562.0	10.117	19.65	12.45	1.77
	86.20	37.12	73.80	0.00	0.0644	11.05	486.4	386.38	0.0711	566.9	10.204	19.82	12.58	1.77
	87.12	37.15	73.82	0.00	0.0641	11.00	484.1	384.52	0.0724	582.9	10.492	20.37	13.01	1.77
	88.11	37.13	73.80	0.00	0.0641	11.00	484.0	384.56	0.0723	582.9	10.492	20.38	13.01	1.77
	89.12	37.18	73.80	-0.00	0.0641	11.00	484.2	384.72	0.0719	581.6	10.469	20.33	12.97	1.77
	90.12	37.16	73.82	0.00	0.0639	10.99	483.7	384.21	0.0739	594.7	10.704	20.78	13.31	1.77
	91.12	37.22	73.82	-0.00	0.0639	10.95	481.9	382.84	0.0739	604.2	10.875	21.12	13.56	1.77
	92.12	37.24	73.82	-0.00	0.0637	10.91	480.0	381.34	0.0752	615.6	11.081	21.52	13.85	1.77
	93.12	37.26	73.80	-0.00	0.0635	10.85	477.2	379.27	0.0759	635.8	11.445	22.24	14.35	1.77
	94.12	37.24	73.77	-0.00	0.0636	10.88	478.7	380.57	0.0758	629.0	11.322	22.00	14.18	1.77
	95.11	37.21	73.77	0.00	0.0635	10.90	479.7	381.32	0.0766	626.2	11.271	21.90	14.11	1.77
	96.12	37.21	73.82	0.00	0.0634	10.87	478.2	379.89	0.0770	638.6	11.494	22.32	14.41	1.77
	97.12	37.24	73.80	0.00	0.0633	10.81	475.6	378.01	0.0777	656.5	11.817	22.96	14.84	1.77
	98.11	37.21	73.80	0.00	0.0636	10.86	477.7	379.62	0.0756	628.4	11.312	21.97	14.17	1.77
	99.12	37.21	73.80	-0.00	0.0636	10.89	479.2	380.85	0.0761	630.5	11.349	22.05	14.22	1.77
	100.11	37.25	73.82	0.00	0.0634	10.86	477.9	379.73	0.0760	635.5	11.439	22.22	14.34	1.77
	101.11	37.19	73.80	0.00	0.0632	10.76	473.6	376.34	0.0787	668.1	12.027	23.36	15.11	1.77
	102.12	37.22	73.82	-0.00	0.0633	10.78	474.2	376.69	0.0785	661.8	11.912	23.13	14.97	1.77
	103.12	37.19	73.80	-0.00	0.0633	10.84	477.1	379.11	0.0788	664.0	11.952	23.22	15.02	1.77
	104.19	37.14	73.80	0.00	0.0633	10.85	477.5	379.36	0.0790	657.7	11.839	22.99	14.87	1.77
	105.12	37.21	73.80	-0.00	0.0632	10.81	475.6	377.92	0.0795	666.8	12.003	23.32	15.08	1.77
	106.12	37.16	73.80	-0.00	0.0632	10.82	475.9	378.15	0.0796	671.3	12.083	23.47	15.18	1.77
	107.11	37.18	73.80	0.00	0.0631	10.80	475.3	377.69	0.0799	677.2	12.190	23.68	15.32	1.77
	108.11	37.17	73.80	0.00	0.0631	10.79	474.8	377.26	0.0796	671.5	12.088	23.48	15.19	1.77
	109.11	37.13	73.80	0.00	0.0636	10.85	477.4	379.31	0.0776	656.2	11.811	22.94	14.83	1.77
	110.11	37.17	73.80	0.00	0.0637	10.90	479.4	380.91	0.0771	643.0	11.573	22.48	14.52	1.77
	111.12	37.13	73.80	-0.00	0.0636	10.87	478.4	380.06	0.0780	656.6	11.818	22.95	14.84	1.77
	112.11	37.12	73.77	0.00	0.0636	10.92	480.3	381.68	0.0789	653.4	11.761	22.85	14.76	1.77
	113.11	37.13	73.82	0.00	0.0633	10.85	477.4	379.16	0.0802	680.8	12.255	23.79	15.40	1.77
	114.11	37.11	73.77	0.00	0.0633	10.81	475.5	377.84	0.0806	684.7	12.325	23.94	15.49	1.77
	115.12	37.08	73.82	-0.00	0.0631	10.75	473.2	375.73	0.0819	700.4	12.608	24.47	15.84	1.77
	116.11	37.03	73.82	0.00	0.0633	10.80	475.2	377.24	0.0819	705.5	12.700	24.65	15.96	1.77
	117.12	36.99	73.82	0.00	0.0631	10.80	475.2	377.26	0.0824	702.3	12.641	24.53	15.88	1.77
	118.11	37.06	73.77	0.00	0.0630	10.79	474.7	377.19	0.0819	699.6	12.592	24.46	15.82	1.77
	119.11	37.11	73.80	0.00	0.0630	10.77	474.0	376.56	0.0824	709.8	12.777	24.81	16.05	1.77
	120.12	37.10	73.82	-0.00	0.0629	10.74	472.7	375.39	0.0815	696.3	12.534	24.33	15.75	1.77
	121.11	37.10	73.80	0.00	0.0633	10.84	476.9	378.86	0.0820	697.9	12.562	24.39	15.79	1.77
	122.11	37.11	73.80	0.00	0.0634	10.85	477.3	379.15	0.0815	697.2	12.549	24.37	15.77	1.77
	123.11	37.15	73.80	0.00	0.0634	10.85	477.3	379.26	0.0808	688.2	12.387	24.06	15.57	1.77
	124.20	37.12	73.80	0.00	0.0632	10.84	477.0	378.91	0.0820	702.3	12.641	24.55	15.89	1.77
	125.12	37.08	73.82	-0.00	0.0633	10.81	475.4	377.52	0.0824	707.6	12.737	24.72	16.00	1.77
	126.12	37.03	73.77	-0.00	0.0630	10.78	474.2	376.72	0.0834	718.4	12.931	25.11	16.24	1.77
	127.11	37.04	73.82	0.00	0.0631	10.75	473.2	375.68	0.0834	727.1	13.088	25.40	16.43	1.77
	128.09	37.00	73.82	0.00	0.0630	10.74	472.4	375.01	0.0834	723.7	13.027	25.28	16.35	1.77
	129.12	36.94	73.82	-0.00	0.0627	10.72	471.9	374.51	0.0833	719.5	12.952	25.13	16.26	1.77
