Jul 29 2015 at 14:36:39
Frequency: 1.00Hz.
CO2
Zero:  Value:0.95  Date:18 Mar 2005	 at 07:22:33	
Span:  Value:1.00  Date:18 Mar 2005	 at 07:25:09	
H2O
Zero:  Value:0.71  Date:18 Mar 2005	 at 07:52:31	
Span:  Value:0.99  Date:18 Mar 2005	 at 11:44:01	
	Relative Time	Temperature	Pressure	Aux Input	CO2 Absorptance	CO2 mmol/m3	CO2 mg/m3	CO2 umol/mol	H2O Absorptance	H2O mmol/m3	H2O g/m3	H2O mmol/mol	H2O(°C)	Cooler Voltage
	0.25	36.64	73.82	0.00	0.0662	11.50	505.8	401.07	0.0479	337.9	6.082	11.79	4.91	1.80
	1.31	36.61	73.80	-0.00	0.0644	11.24	494.4	392.17	0.0738	583.1	10.496	20.35	12.99	1.80
	2.22	36.61	73.80	0.00	0.0645	11.03	485.2	384.85	0.0686	585.6	10.540	20.43	13.05	1.80
	3.22	36.58	73.77	0.00	0.0644	11.10	488.5	387.51	0.0698	547.8	9.861	19.12	12.03	1.80
	4.24	36.64	73.74	0.00	0.0644	11.04	485.8	385.58	0.0682	544.2	9.795	19.01	11.94	1.80
	5.24	36.61	73.77	-0.00	0.0634	10.83	476.7	378.23	0.0740	612.9	11.032	21.40	13.75	1.80
	6.24	36.61	73.80	-0.00	0.0635	10.86	477.8	378.93	0.0746	610.3	10.986	21.30	13.69	1.79
	7.24	36.60	73.75	0.00	0.0642	10.96	482.4	382.87	0.0710	587.9	10.582	20.53	13.11	1.80
	8.23	36.70	73.80	-0.00	0.0644	11.07	487.3	386.57	0.0699	560.1	10.082	19.55	12.38	1.80
	9.23	36.63	73.77	0.00	0.0645	11.12	489.1	388.06	0.0692	546.8	9.843	19.09	12.01	1.80
	10.22	36.64	73.80	0.00	0.0642	11.03	485.4	385.01	0.0676	530.2	9.544	18.51	11.54	1.80
	11.31	36.62	73.80	0.00	0.0644	11.08	487.3	386.52	0.0687	541.5	9.747	18.90	11.86	1.79
	12.23	36.66	73.77	0.00	0.0643	11.03	485.3	385.14	0.0663	513.7	9.246	17.94	11.06	1.80
	13.22	36.65	73.80	0.00	0.0644	11.06	486.8	386.12	0.0702	561.1	10.100	19.59	12.40	1.80
	14.23	36.64	73.80	0.00	0.0643	11.07	487.2	386.49	0.0710	562.2	10.119	19.62	12.43	1.80
	15.23	36.60	73.80	0.00	0.0642	11.04	485.7	385.23	0.0708	570.3	10.266	19.90	12.65	1.80
	16.22	36.64	73.80	0.00	0.0644	11.05	486.3	385.72	0.0705	562.6	10.128	19.64	12.44	1.79
	17.23	36.64	73.80	-0.00	0.0645	11.07	487.0	386.29	0.0695	555.5	10.000	19.39	12.25	1.80
	18.23	36.62	73.77	0.00	0.0645	11.09	487.8	387.02	0.0688	539.8	9.717	18.85	11.81	1.80
	19.23	36.58	73.80	0.00	0.0645	11.10	488.3	387.28	0.0678	533.6	9.604	18.62	11.63	1.80
	20.23	36.63	73.80	-0.00	0.0645	11.11	488.6	387.58	0.0672	525.9	9.466	18.35	11.42	1.80
	21.23	36.63	73.82	0.00	0.0644	11.10	488.3	387.15	0.0666	527.4	9.493	18.40	11.46	1.80
	22.30	36.63	73.80	0.00	0.0645	11.09	487.8	386.88	0.0675	527.7	9.498	18.42	11.47	1.80
	23.23	36.68	73.77	0.00	0.0645	11.10	488.3	387.51	0.0670	528.4	9.512	18.45	11.49	1.80
	24.25	36.65	73.77	-0.00	0.0645	11.09	487.9	387.17	0.0667	519.5	9.351	18.14	11.23	1.80
	25.23	36.65	73.80	-0.00	0.0644	11.09	487.8	386.98	0.0670	522.3	9.402	18.23	11.32	1.80
	26.23	36.65	73.80	-0.00	0.0643	11.04	485.8	385.36	0.0671	526.1	9.470	18.36	11.42	1.80
	27.22	36.65	73.80	0.00	0.0642	11.05	486.4	385.85	0.0676	529.8	9.537	18.49	11.53	1.80
	28.23	36.65	73.77	0.00	0.0643	11.07	486.9	386.37	0.0695	547.6	9.856	19.12	12.03	1.80
	29.22	36.63	73.77	0.00	0.0642	11.04	485.6	385.30	0.0677	536.9	9.664	18.74	11.73	1.80
	30.23	36.62	73.77	-0.00	0.0642	11.05	486.2	385.76	0.0686	538.7	9.697	18.81	11.78	1.80
	31.25	36.65	73.77	-0.00	0.0642	11.04	486.0	385.63	0.0667	520.6	9.370	18.18	11.26	1.80
	32.23	36.65	73.77	0.00	0.0642	11.04	485.9	385.59	0.0680	535.3	9.636	18.69	11.69	1.80
	33.22	36.60	73.77	0.00	0.0642	11.02	485.1	384.86	0.0670	528.7	9.517	18.46	11.50	1.80
	34.22	36.63	73.80	0.00	0.0641	11.02	484.9	384.62	0.0667	519.4	9.349	18.13	11.23	1.80
	35.23	36.64	73.74	0.00	0.0644	11.10	488.4	387.65	0.0671	524.5	9.441	18.32	11.38	1.80
	36.23	36.60	73.77	-0.00	0.0646	11.15	490.5	389.14	0.0681	534.0	9.612	18.64	11.65	1.80
	37.22	36.60	73.80	0.00	0.0644	11.13	489.5	388.26	0.0670	530.9	9.557	18.53	11.56	1.80
	38.25	36.59	73.77	-0.00	0.0647	11.13	489.5	388.38	0.0671	525.9	9.466	18.36	11.42	1.80
	39.30	36.63	73.80	0.00	0.0643	11.10	488.4	387.41	0.0666	517.6	9.316	18.06	11.18	1.80
	40.22	36.65	73.77	0.00	0.0646	11.12	489.4	388.36	0.0669	525.3	9.456	18.34	11.40	1.80
	41.23	36.60	73.80	-0.00	0.0647	11.14	490.3	388.87	0.0663	515.5	9.278	17.99	11.11	1.80
	42.23	36.64	73.80	-0.00	0.0645	11.12	489.1	387.96	0.0668	518.2	9.327	18.08	11.19	1.80
	43.23	36.58	73.77	0.00	0.0647	11.10	488.3	387.37	0.0661	513.4	9.241	17.92	11.05	1.80
	44.22	36.62	73.85	0.00	0.0647	11.13	489.7	388.15	0.0659	511.9	9.213	17.85	11.01	1.80
	45.23	36.63	73.80	0.00	0.0647	11.15	490.7	389.22	0.0658	509.2	9.165	17.77	10.93	1.80
	46.23	36.63	73.80	0.00	0.0647	11.14	490.0	388.65	0.0658	511.8	9.212	17.86	11.01	1.80
	47.23	36.63	73.77	0.00	0.0648	11.16	491.3	389.80	0.0659	506.9	9.125	17.70	10.86	1.80
	48.23	36.65	73.80	0.00	0.0648	11.16	491.2	389.61	0.0658	507.5	9.135	17.71	10.88	1.80
	49.25	36.65	73.77	0.00	0.0649	11.19	492.3	390.65	0.0659	512.9	9.232	17.91	11.04	1.80
	50.23	36.65	73.75	0.00	0.0649	11.20	492.6	391.02	0.0666	517.6	9.317	18.08	11.18	1.80
	51.25	36.65	73.85	-0.00	0.0649	11.17	491.6	389.67	0.0669	519.3	9.347	18.11	11.23	1.80
	52.27	36.58	73.80	-0.00	0.0650	11.20	493.0	390.96	0.0669	520.2	9.364	18.15	11.25	1.80
	53.23	36.61	73.74	0.00	0.0649	11.21	493.2	391.42	0.0672	529.1	9.523	18.48	11.51	1.80
	54.25	36.61	73.77	-0.00	0.0650	11.21	493.3	391.35	0.0672	523.3	9.419	18.27	11.34	1.80
	55.23	36.56	73.80	0.00	0.0650	11.21	493.1	391.04	0.0678	530.3	9.545	18.50	11.54	1.80
	56.25	36.61	73.75	-0.00	0.0650	11.22	493.7	391.87	0.0677	530.4	9.548	18.52	11.55	1.80
	57.23	36.61	73.77	0.00	0.0651	11.24	494.6	392.46	0.0676	529.6	9.533	18.49	11.52	1.80
	58.25	36.61	73.77	-0.00	0.0652	11.23	494.3	392.17	0.0672	523.3	9.419	18.27	11.34	1.80
	59.25	36.63	73.80	0.00	0.0652	11.24	494.7	392.42	0.0674	527.6	9.497	18.41	11.47	1.80
	60.23	36.66	73.80	0.00	0.0651	11.25	494.8	392.55	0.0678	531.0	9.558	18.54	11.57	1.80
	61.23	36.61	73.77	0.00	0.0651	11.23	494.2	392.14	0.0675	525.2	9.453	18.33	11.39	1.80
	62.23	36.62	73.80	0.00	0.0652	11.24	494.7	392.42	0.0677	529.2	9.525	18.47	11.51	1.80
	63.31	36.60	73.77	0.00	0.0652	11.25	495.0	392.73	0.0681	532.7	9.589	18.60	11.61	1.80
	64.25	36.61	73.75	0.00	0.0652	11.25	495.2	393.01	0.0684	535.6	9.640	18.70	11.69	1.80
	65.23	36.60	73.77	0.00	0.0653	11.27	496.1	393.60	0.0680	533.6	9.604	18.63	11.63	1.80
	66.25	36.58	73.77	-0.00	0.0653	11.26	495.6	393.20	0.0678	536.8	9.663	18.74	11.73	1.80
	67.25	36.60	73.80	-0.00	0.0653	11.27	495.9	393.33	0.0681	539.9	9.718	18.84	11.81	1.81
	68.23	36.60	73.77	0.00	0.0653	11.27	495.7	393.29	0.0679	532.2	9.580	18.58	11.60	1.80
	69.25	36.60	73.77	-0.00	0.0652	11.26	495.5	393.09	0.0692	548.6	9.875	19.15	12.06	1.80
	70.23	36.57	73.75	0.00	0.0653	11.27	495.9	393.54	0.0690	540.6	9.730	18.87	11.83	1.80
	71.25	36.54	73.77	-0.00	0.0654	11.28	496.4	393.78	0.0691	546.7	9.840	19.08	12.00	1.80
	72.23	36.59	73.77	0.00	0.0653	11.30	497.2	394.46	0.0693	549.4	9.889	19.18	12.08	1.81
	73.25	36.61	73.77	0.00	0.0654	11.30	497.1	394.39	0.0688	543.4	9.781	18.97	11.91	1.81
	74.23	36.63	73.80	0.00	0.0654	11.29	497.0	394.19	0.0692	548.1	9.865	19.13	12.04	1.80
	75.23	36.60	73.80	0.00	0.0654	11.30	497.0	394.21	0.0685	543.3	9.780	18.96	11.91	1.80
	76.33	36.60	73.77	-0.00	0.0657	11.34	499.0	395.89	0.0688	543.8	9.789	18.98	11.92	1.80
	77.23	36.65	73.80	0.00	0.0657	11.35	499.3	396.04	0.0694	547.2	9.849	19.10	12.02	1.80
	78.25	36.62	73.80	-0.00	0.0655	11.33	498.6	395.48	0.0704	558.0	10.044	19.47	12.31	1.81
	79.23	36.65	73.80	0.00	0.0656	11.34	499.2	395.96	0.0690	546.0	9.828	19.06	11.99	1.81
	80.25	36.60	73.80	-0.00	0.0655	11.32	498.2	395.12	0.0690	543.7	9.786	18.97	11.92	1.80
	81.25	36.62	73.80	0.00	0.0654	11.29	496.6	393.91	0.0693	544.1	9.795	18.99	11.93	1.80
	82.23	36.63	73.77	0.00	0.0656	11.33	498.6	395.63	0.0691	548.4	9.871	19.15	12.05	1.80
	83.23	36.59	73.75	0.00	0.0656	11.33	498.6	395.69	0.0698	549.7	9.895	19.20	12.09	1.80
	84.23	36.58	73.77	0.00	0.0656	11.34	498.9	395.79	0.0694	553.0	9.954	19.30	12.18	1.81
	85.25	36.59	73.80	-0.00	0.0658	11.36	500.0	396.57	0.0697	554.2	9.975	19.34	12.21	1.81
	86.33	36.63	73.77	0.00	0.0656	11.35	499.2	396.10	0.0699	553.1	9.955	19.31	12.18	1.80
	87.25	36.60	73.77	-0.00	0.0656	11.35	499.5	396.29	0.0700	558.2	10.047	19.49	12.32	1.80
	88.25	36.61	73.77	-0.00	0.0657	11.35	499.6	396.37	0.0701	562.8	10.130	19.65	12.44	1.80
	89.25	36.65	73.72	-0.00	0.0657	11.38	500.8	397.69	0.0703	559.4	10.069	19.54	12.35	1.80
	90.23	36.66	73.77	-0.00	0.0658	11.38	500.8	397.41	0.0706	559.0	10.062	19.52	12.34	1.81
	91.25	36.63	73.80	-0.00	0.0659	11.40	501.6	397.85	0.0708	566.3	10.194	19.76	12.54	1.80
	92.23	36.59	73.80	0.00	0.0659	11.40	501.4	397.68	0.0708	563.0	10.134	19.65	12.45	1.80
	93.33	36.62	73.80	-0.00	0.0658	11.39	501.1	397.48	0.0701	558.6	10.054	19.49	12.33	1.81
	94.23	36.60	73.80	0.00	0.0658	11.38	500.6	397.00	0.0707	562.4	10.123	19.63	12.43	1.81
	95.23	36.61	73.80	0.00	0.0658	11.37	500.2	396.71	0.0704	555.3	9.995	19.38	12.24	1.81
	96.25	36.61	73.80	0.00	0.0658	11.38	500.8	397.19	0.0699	558.0	10.044	19.47	12.31	1.81
	97.23	36.55	73.80	0.00	0.0658	11.38	500.9	397.23	0.0699	557.4	10.032	19.45	12.29	1.81
	98.23	36.58	73.77	0.00	0.0658	11.37	500.3	396.92	0.0700	557.5	10.036	19.46	12.30	1.80
	99.23	36.64	73.77	0.00	0.0658	11.40	501.5	397.98	0.0705	560.2	10.083	19.56	12.38	1.81
	100.23	36.55	73.82	0.00	0.0658	11.38	500.6	396.87	0.0708	562.8	10.130	19.63	12.44	1.81
	101.25	36.62	73.80	-0.00	0.0659	11.41	502.0	398.15	0.0705	558.4	10.052	19.49	12.33	1.81
	102.25	36.61	73.77	-0.00	0.0658	11.40	501.7	398.04	0.0710	566.8	10.202	19.79	12.55	1.81
	103.25	36.63	73.80	-0.00	0.0659	11.41	502.1	398.28	0.0707	563.4	10.141	19.66	12.46	1.81
	104.31	36.60	73.77	0.00	0.0659	11.39	501.1	397.56	0.0708	568.5	10.234	19.85	12.60	1.80
	105.23	36.62	73.77	0.00	0.0659	11.42	502.3	398.55	0.0710	571.4	10.285	19.95	12.68	1.81
	106.25	36.63	73.82	-0.00	0.0659	11.41	502.0	398.06	0.0720	579.6	10.432	20.22	12.89	1.81
	107.23	36.65	73.80	-0.00	0.0660	11.40	501.5	397.81	0.0718	575.7	10.363	20.09	12.79	1.81
	108.25	36.63	73.77	-0.00	0.0659	11.39	501.1	397.60	0.0717	578.8	10.419	20.21	12.87	1.81
	109.23	36.62	73.77	0.00	0.0659	11.40	501.4	397.82	0.0715	575.1	10.352	20.08	12.78	1.81
	110.23	36.65	73.77	0.00	0.0660	11.40	501.8	398.19	0.0715	574.1	10.334	20.04	12.75	1.81
	111.25	36.65	73.77	-0.00	0.0659	11.40	501.7	398.12	0.0716	575.3	10.356	20.09	12.78	1.81
	112.23	36.62	73.85	0.00	0.0658	11.39	501.2	397.25	0.0714	573.8	10.328	20.01	12.74	1.81
	113.23	36.65	73.80	0.00	0.0659	11.40	501.7	397.94	0.0718	574.1	10.334	20.04	12.75	1.81
	114.23	36.63	73.80	0.00	0.0658	11.39	501.0	397.37	0.0718	579.1	10.424	20.21	12.88	1.81
	115.25	36.65	73.80	0.00	0.0659	11.41	502.0	398.19	0.0719	580.0	10.440	20.24	12.91	1.81
	116.25	36.64	73.80	-0.00	0.0659	11.41	502.3	398.40	0.0720	579.5	10.432	20.23	12.89	1.81
	117.23	36.62	73.77	0.00	0.0660	11.41	502.0	398.30	0.0725	581.7	10.471	20.31	12.95	1.81
	118.25	36.62	73.82	0.00	0.0659	11.39	501.1	397.35	0.0725	586.8	10.562	20.47	13.08	1.81
	119.23	36.60	73.80	0.00	0.0659	11.42	502.3	398.36	0.0726	585.6	10.542	20.44	13.05	1.81
	120.25	36.59	73.80	-0.00	0.0658	11.39	501.0	397.37	0.0726	585.1	10.532	20.42	13.04	1.81
	121.23	36.63	73.80	-0.00	0.0658	11.39	501.2	397.57	0.0725	585.6	10.542	20.44	13.05	1.81
	122.25	36.64	73.80	-0.00	0.0658	11.38	500.7	397.13	0.0723	584.8	10.527	20.41	13.03	1.81
	123.23	36.63	73.77	0.00	0.0658	11.39	501.0	397.56	0.0724	586.4	10.556	20.47	13.07	1.81
	124.23	36.68	73.80	-0.00	0.0658	11.39	501.3	397.69	0.0723	586.4	10.556	20.47	13.08	1.81
	125.25	36.64	73.80	0.00	0.0657	11.37	500.3	396.87	0.0731	592.3	10.661	20.67	13.23	1.81
	126.23	36.68	73.74	0.00	0.0658	11.41	501.9	398.45	0.0720	580.7	10.452	20.28	12.92	1.81
	127.23	36.70	73.80	0.00	0.0657	11.38	500.5	397.11	0.0725	584.8	10.527	20.42	13.04	1.81
	128.22	36.72	73.80	0.00	0.0658	11.37	500.4	397.02	0.0727	585.4	10.537	20.44	13.05	1.81
	129.24	36.65	73.80	0.00	0.0658	11.39	501.1	397.51	0.0727	589.6	10.612	20.58	13.16	1.81
	130.25	36.63	73.80	-0.00	0.0659	11.41	501.9	398.12	0.0721	581.0	10.458	20.28	12.93	1.81
	131.24	36.64	73.80	-0.00	0.0657	11.36	500.0	396.63	0.0732	590.5	10.628	20.61	13.18	1.81
	132.24	36.63	73.80	0.00	0.0656	11.36	499.8	396.47	0.0734	598.4	10.770	20.88	13.38	1.81
	133.25	36.62	73.80	0.00	0.0657	11.36	500.1	396.63	0.0735	597.7	10.758	20.86	13.36	1.81
	134.24	36.59	73.77	0.00	0.0657	11.37	500.2	396.87	0.0732	595.2	10.714	20.78	13.30	1.81
	135.22	36.65	73.80	0.00	0.0656	11.36	500.0	396.66	0.0730	592.1	10.659	20.67	13.22	1.81
	136.25	36.63	73.82	-0.00	0.0653	11.26	495.5	392.89	0.0731	590.1	10.622	20.59	13.17	1.81
