Jul 29 2015 at 11:15:36
Frequency: 1.00Hz.
CO2
Zero:  Value:0.95  Date:18 Mar 2005	 at 07:22:33	
Span:  Value:1.00  Date:18 Mar 2005	 at 07:25:09	
H2O
Zero:  Value:0.71  Date:18 Mar 2005	 at 07:52:31	
Span:  Value:0.99  Date:18 Mar 2005	 at 11:44:01	
	Relative Time	Temperature	Pressure	Aux Input	CO2 Absorptance	CO2 mmol/m3	CO2 mg/m3	CO2 umol/mol	H2O Absorptance	H2O mmol/m3	H2O g/m3	H2O mmol/mol	H2O(°C)	Cooler Voltage
	0.81	31.59	73.41	0.00	0.0660	11.44	503.3	394.76	0.0438	290.4	5.228	10.02	2.53	1.71
	1.75	31.64	73.43	-0.00	0.0659	11.43	503.0	394.49	0.0438	291.7	5.251	10.07	2.59	1.71
	2.75	31.63	73.41	-0.00	0.0658	11.38	500.6	392.73	0.0438	289.7	5.215	10.00	2.49	1.71
	3.75	31.63	73.41	-0.00	0.0659	11.44	503.5	394.98	0.0441	294.4	5.299	10.16	2.72	1.71
	4.81	31.64	73.41	0.00	0.0660	11.44	503.5	395.03	0.0444	295.9	5.326	10.21	2.79	1.71
	5.73	31.65	73.41	0.00	0.0661	11.49	505.4	396.54	0.0456	307.5	5.535	10.62	3.34	1.71
	6.81	31.68	73.41	0.00	0.0662	11.45	503.7	395.21	0.0453	301.2	5.421	10.40	3.04	1.71
	7.73	31.65	73.41	0.00	0.0663	11.50	505.8	396.84	0.0468	315.9	5.686	10.90	3.72	1.71
	8.75	31.63	73.43	-0.00	0.0662	11.49	505.7	396.62	0.0477	323.2	5.817	11.15	4.04	1.71
	9.73	31.63	73.41	0.00	0.0664	11.54	507.6	398.26	0.0494	340.6	6.130	11.76	4.79	1.70
	10.75	31.63	73.41	0.00	0.0663	11.51	506.5	397.32	0.0497	344.6	6.203	11.90	4.96	1.71
	11.73	31.64	73.41	0.00	0.0661	11.49	505.5	396.62	0.0500	349.2	6.286	12.06	5.15	1.71
	12.73	31.64	73.41	0.00	0.0661	11.48	505.2	396.39	0.0500	348.4	6.270	12.03	5.11	1.71
	13.75	31.66	73.41	-0.00	0.0662	11.51	506.4	397.34	0.0496	344.4	6.200	11.89	4.95	1.71
	14.83	31.65	73.41	-0.00	0.0661	11.49	505.7	396.80	0.0495	344.5	6.201	11.89	4.95	1.70
	15.73	31.63	73.41	0.00	0.0660	11.46	504.2	395.54	0.0494	341.0	6.138	11.77	4.81	1.70
	16.73	31.66	73.41	0.00	0.0662	11.48	505.3	396.43	0.0500	347.3	6.251	11.99	5.07	1.71
	17.75	31.65	73.43	-0.00	0.0661	11.48	505.2	396.26	0.0501	350.6	6.311	12.10	5.21	1.70
	18.73	31.63	73.41	0.00	0.0661	11.47	504.6	395.85	0.0498	347.8	6.260	12.01	5.09	1.71
	19.73	31.62	73.41	0.00	0.0660	11.47	504.5	395.79	0.0499	347.8	6.260	12.00	5.09	1.70
	20.75	31.64	73.41	-0.00	0.0658	11.45	503.7	395.20	0.0492	342.4	6.163	11.82	4.87	1.71
	21.75	31.60	73.43	0.00	0.0660	11.44	503.4	394.73	0.0491	338.6	6.095	11.68	4.70	1.70
	22.73	31.62	73.41	0.00	0.0659	11.43	502.9	394.55	0.0499	348.9	6.279	12.04	5.13	1.71
	23.75	31.62	73.38	-0.00	0.0659	11.43	502.9	394.67	0.0505	353.3	6.359	12.20	5.31	1.70
	24.73	31.63	73.41	0.00	0.0659	11.41	502.1	393.93	0.0510	356.8	6.422	12.32	5.45	1.70
	25.81	31.65	73.43	0.00	0.0659	11.42	502.7	394.25	0.0507	355.5	6.399	12.27	5.40	1.70
	26.73	31.66	73.40	0.00	0.0659	11.42	502.4	394.16	0.0501	349.2	6.286	12.06	5.15	1.70
	27.75	31.63	73.41	0.00	0.0659	11.43	502.9	394.52	0.0496	343.7	6.186	11.86	4.92	1.70
	28.73	31.66	73.41	0.00	0.0659	11.41	502.2	394.00	0.0498	345.8	6.224	11.94	5.01	1.71
	29.83	31.64	73.43	-0.00	0.0658	11.41	502.0	393.67	0.0504	350.6	6.310	12.10	5.20	1.70
	30.73	31.66	73.43	0.00	0.0659	11.41	502.2	393.88	0.0502	348.8	6.279	12.04	5.13	1.70
	31.73	31.66	73.43	0.00	0.0658	11.41	501.9	393.67	0.0501	348.4	6.272	12.03	5.12	1.70
	32.75	31.63	73.43	-0.00	0.0658	11.41	501.9	393.66	0.0499	346.8	6.243	11.97	5.05	1.70
	33.81	31.63	73.41	-0.00	0.0658	11.40	501.7	393.60	0.0504	351.6	6.329	12.14	5.25	1.70
	34.75	31.62	73.41	-0.00	0.0658	11.41	501.8	393.70	0.0510	356.2	6.412	12.30	5.43	1.71
	35.73	31.63	73.41	0.00	0.0658	11.40	501.5	393.47	0.0513	360.4	6.487	12.44	5.60	1.70
	36.73	31.60	73.43	0.00	0.0658	11.40	501.5	393.28	0.0515	360.5	6.489	12.44	5.60	1.70
	37.75	31.63	73.41	-0.00	0.0658	11.41	502.0	393.81	0.0520	368.3	6.630	12.71	5.92	1.71
	38.73	31.66	73.43	0.00	0.0659	11.42	502.3	393.99	0.0524	368.7	6.637	12.73	5.93	1.70
	39.73	31.65	73.43	0.00	0.0657	11.39	501.0	392.97	0.0528	375.0	6.750	12.94	6.18	1.70
	40.73	31.66	73.41	0.00	0.0658	11.40	501.5	393.50	0.0530	376.2	6.771	12.99	6.22	1.70
	41.73	31.63	73.43	0.00	0.0657	11.39	501.0	392.91	0.0537	381.9	6.873	13.18	6.44	1.70
	42.75	31.63	73.43	-0.00	0.0658	11.40	501.5	393.28	0.0539	382.3	6.881	13.19	6.45	1.70
	43.73	31.66	73.41	0.00	0.0657	11.39	501.3	393.31	0.0538	385.1	6.931	13.29	6.56	1.70
	44.73	31.63	73.43	-0.00	0.0658	11.39	501.0	392.90	0.0542	389.4	7.008	13.44	6.72	1.70
	45.75	31.66	73.43	-0.00	0.0658	11.40	501.4	393.26	0.0543	390.6	7.031	13.48	6.77	1.71
	46.83	31.63	73.41	-0.00	0.0658	11.41	502.1	393.91	0.0544	391.0	7.038	13.50	6.78	1.70
	47.75	31.63	73.43	-0.00	0.0658	11.41	502.1	393.76	0.0548	393.9	7.090	13.59	6.89	1.70
	48.73	31.65	73.43	0.00	0.0657	11.38	500.8	392.80	0.0553	397.9	7.161	13.73	7.04	1.70
	49.73	31.63	73.41	0.00	0.0657	11.38	500.8	392.87	0.0547	394.6	7.103	13.62	6.91	1.70
	50.73	31.65	73.41	0.00	0.0657	11.39	501.0	393.04	0.0551	396.6	7.139	13.69	6.99	1.70
	51.75	31.67	73.43	-0.00	0.0657	11.39	500.9	392.93	0.0549	395.5	7.118	13.65	6.95	1.71
	52.73	31.70	73.43	0.00	0.0657	11.37	500.3	392.44	0.0558	404.3	7.277	13.95	7.27	1.70
	53.81	31.69	73.43	0.00	0.0657	11.37	500.1	392.30	0.0560	407.6	7.337	14.07	7.39	1.70
	54.75	31.71	73.41	-0.00	0.0657	11.38	500.8	392.97	0.0556	402.8	7.251	13.91	7.22	1.70
	55.73	31.70	73.41	0.00	0.0657	11.38	500.7	392.88	0.0560	402.9	7.252	13.91	7.22	1.70
	56.73	31.71	73.41	0.00	0.0656	11.37	500.2	392.52	0.0567	413.3	7.439	14.27	7.59	1.70
	57.73	31.76	73.43	0.00	0.0657	11.37	500.5	392.65	0.0568	412.3	7.422	14.23	7.56	1.71
	58.75	31.73	73.41	-0.00	0.0657	11.38	500.9	393.09	0.0573	419.4	7.549	14.48	7.81	1.70
	59.73	31.74	73.41	-0.00	0.0657	11.38	500.9	393.12	0.0571	419.1	7.543	14.47	7.80	1.70
	60.75	31.69	73.41	0.00	0.0656	11.39	501.2	393.31	0.0579	424.2	7.636	14.65	7.98	1.70
	61.73	31.69	73.41	0.00	0.0657	11.38	500.6	392.85	0.0576	422.3	7.602	14.58	7.91	1.70
	62.73	31.71	73.41	0.00	0.0657	11.39	501.0	393.18	0.0576	423.0	7.614	14.61	7.94	1.70
	63.73	31.67	73.43	-0.00	0.0656	11.35	499.3	391.63	0.0579	423.9	7.630	14.63	7.96	1.71
	64.75	31.70	73.41	-0.00	0.0657	11.37	500.3	392.59	0.0579	425.7	7.662	14.70	8.03	1.70
	65.73	31.69	73.43	0.00	0.0656	11.37	500.2	392.35	0.0578	426.0	7.669	14.70	8.04	1.70
	66.73	31.70	73.41	0.00	0.0656	11.36	499.9	392.30	0.0581	427.6	7.696	14.76	8.09	1.70
	67.73	31.68	73.41	0.00	0.0656	11.37	500.2	392.45	0.0587	431.9	7.774	14.91	8.24	1.70
	68.73	31.68	73.38	0.00	0.0656	11.36	499.8	392.31	0.0591	436.4	7.855	15.07	8.39	1.71
	69.73	31.67	73.41	-0.00	0.0656	11.37	500.1	392.40	0.0593	440.3	7.926	15.20	8.52	1.71
	70.73	31.62	73.41	0.00	0.0657	11.37	500.2	392.45	0.0597	446.4	8.035	15.41	8.72	1.70
	71.73	31.62	73.43	0.00	0.0657	11.37	500.2	392.29	0.0595	442.8	7.970	15.28	8.60	1.70
	72.75	31.66	73.43	-0.00	0.0656	11.36	500.0	392.15	0.0600	445.1	8.011	15.36	8.68	1.70
	73.75	31.63	73.41	-0.00	0.0656	11.36	499.7	392.00	0.0603	448.2	8.068	15.47	8.78	1.70
	74.72	31.65	73.43	0.00	0.0656	11.36	499.8	391.96	0.0604	451.9	8.133	15.59	8.91	1.70
	75.75	31.63	73.41	-0.00	0.0656	11.36	500.0	392.25	0.0608	457.2	8.230	15.78	9.08	1.71
	76.72	31.64	73.41	0.00	0.0656	11.36	499.6	391.98	0.0607	454.9	8.188	15.70	9.00	1.70
	77.73	31.64	73.38	0.00	0.0656	11.36	499.6	392.14	0.0603	450.3	8.106	15.55	8.85	1.70
	78.73	31.64	73.41	0.00	0.0656	11.35	499.5	391.86	0.0605	453.1	8.155	15.64	8.95	1.70
	79.73	31.67	73.43	0.00	0.0655	11.34	498.9	391.35	0.0605	452.4	8.144	15.61	8.93	1.70
	80.72	31.67	73.41	0.00	0.0655	11.34	498.8	391.37	0.0604	451.9	8.135	15.60	8.91	1.70
	81.75	31.67	73.41	0.00	0.0655	11.34	499.1	391.59	0.0603	451.9	8.135	15.60	8.91	1.71
	82.73	31.65	73.43	-0.00	0.0655	11.33	498.3	390.83	0.0609	456.8	8.223	15.76	9.07	1.70
	83.75	31.65	73.43	-0.00	0.0654	11.33	498.3	390.83	0.0610	458.6	8.255	15.83	9.13	1.70
	84.73	31.70	73.43	0.00	0.0655	11.35	499.2	391.59	0.0619	463.0	8.334	15.98	9.27	1.70
	85.73	31.68	73.43	0.00	0.0655	11.34	499.1	391.50	0.0623	471.1	8.480	16.26	9.53	1.70
	86.73	31.65	73.41	0.00	0.0655	11.33	498.6	391.20	0.0624	473.0	8.514	16.33	9.58	1.70
	87.75	31.70	73.41	-0.00	0.0655	11.33	498.7	391.31	0.0634	481.1	8.660	16.61	9.84	1.70
	88.73	31.67	73.41	0.00	0.0655	11.34	499.0	391.51	0.0631	480.5	8.648	16.59	9.82	1.70
	89.75	31.65	73.43	-0.00	0.0655	11.33	498.6	391.02	0.0626	478.0	8.604	16.50	9.74	1.70
	90.73	31.70	73.41	0.00	0.0654	11.33	498.6	391.27	0.0632	480.5	8.649	16.59	9.82	1.70
	91.73	31.67	73.40	-0.00	0.0654	11.32	498.1	390.82	0.0628	478.3	8.610	16.51	9.75	1.70
	92.73	31.65	73.43	0.00	0.0654	11.32	498.1	390.63	0.0624	474.3	8.538	16.37	9.63	1.70
	93.73	31.66	73.41	-0.00	0.0655	11.33	498.6	391.24	0.0627	475.6	8.560	16.42	9.67	1.70
	94.75	31.66	73.43	0.00	0.0654	11.31	497.8	390.43	0.0626	474.3	8.537	16.37	9.63	1.70
	95.72	31.65	73.43	0.00	0.0654	11.31	497.6	390.24	0.0632	479.4	8.629	16.54	9.79	1.70
	96.75	31.64	73.43	-0.00	0.0656	11.35	499.3	391.60	0.0644	490.1	8.821	16.91	10.11	1.70
	97.72	31.63	73.41	0.00	0.0655	11.34	498.9	391.38	0.0642	489.1	8.803	16.88	10.08	1.70
	98.75	31.63	73.41	-0.00	0.0655	11.34	498.9	391.43	0.0643	493.3	8.880	17.03	10.21	1.70
	99.73	31.68	73.46	-0.00	0.0655	11.34	499.0	391.27	0.0646	494.6	8.903	17.06	10.25	1.70
	100.73	31.62	73.43	0.00	0.0655	11.34	498.8	391.19	0.0647	497.1	8.948	17.15	10.33	1.70
	101.80	31.61	73.41	0.00	0.0655	11.33	498.6	391.12	0.0646	496.6	8.940	17.14	10.31	1.70
	102.75	31.62	73.43	-0.00	0.0654	11.32	498.2	390.68	0.0647	497.3	8.952	17.16	10.33	1.70
	103.73	31.60	73.38	0.00	0.0655	11.34	498.8	391.39	0.0648	496.8	8.942	17.15	10.31	1.70
	104.75	31.63	73.41	-0.00	0.0656	11.35	499.3	391.71	0.0651	503.9	9.070	17.39	10.53	1.70
	105.73	31.63	73.41	0.00	0.0656	11.36	499.6	391.98	0.0653	503.2	9.057	17.37	10.51	1.70
	106.72	31.61	73.41	0.00	0.0656	11.35	499.5	391.83	0.0653	505.0	9.091	17.43	10.56	1.70
	107.73	31.64	73.43	-0.00	0.0655	11.34	498.9	391.26	0.0653	502.5	9.045	17.34	10.49	1.70
	108.73	31.66	73.43	-0.00	0.0655	11.32	498.0	390.61	0.0654	503.5	9.063	17.38	10.52	1.70
	109.73	31.62	73.41	0.00	0.0656	11.34	499.0	391.44	0.0661	507.7	9.139	17.53	10.64	1.70
	110.73	31.64	73.43	-0.00	0.0655	11.32	498.0	390.61	0.0655	506.8	9.123	17.49	10.62	1.70
	111.75	31.71	73.48	-0.00	0.0655	11.32	498.1	390.46	0.0654	504.4	9.078	17.40	10.55	1.70
	112.72	31.63	73.43	0.00	0.0655	11.33	498.3	390.84	0.0656	508.1	9.146	17.53	10.65	1.70
	113.75	31.65	73.38	-0.00	0.0654	11.32	498.2	390.98	0.0655	506.6	9.118	17.49	10.61	1.70
	114.73	31.65	73.43	-0.00	0.0655	11.33	498.7	391.16	0.0658	509.3	9.168	17.58	10.69	1.71
	115.73	31.65	73.41	0.00	0.0656	11.35	499.3	391.74	0.0661	512.8	9.231	17.70	10.79	1.71
	116.73	31.67	73.41	-0.00	0.0655	11.33	498.6	391.19	0.0663	515.7	9.283	17.81	10.88	1.71
	117.73	31.67	73.43	0.00	0.0655	11.32	498.2	390.73	0.0664	516.9	9.303	17.84	10.91	1.70
	118.72	31.72	73.38	0.00	0.0655	11.33	498.4	391.23	0.0666	518.5	9.332	17.91	10.96	1.70
	119.75	31.67	73.41	-0.00	0.0654	11.32	498.1	390.80	0.0668	522.4	9.402	18.03	11.07	1.70
	120.75	31.66	73.41	-0.00	0.0654	11.32	498.1	390.81	0.0666	517.0	9.305	17.85	10.91	1.71
	121.75	31.68	73.41	0.00	0.0654	11.31	497.8	390.61	0.0666	519.9	9.358	17.95	11.00	1.71
	122.81	31.69	73.41	0.00	0.0655	11.31	497.7	390.51	0.0673	523.8	9.429	18.09	11.11	1.70
	123.77	31.74	73.43	-0.00	0.0654	11.33	498.5	391.08	0.0671	527.0	9.485	18.19	11.21	1.71
	124.75	31.71	73.43	-0.00	0.0654	11.32	498.3	390.87	0.0670	524.1	9.434	18.09	11.12	1.70
	125.73	31.71	73.43	0.00	0.0655	11.32	498.3	390.89	0.0671	523.7	9.426	18.08	11.11	1.70
