Jul 29 2015 at 10:45:35
Frequency: 1.00Hz.
CO2
Zero:  Value:0.95  Date:18 Mar 2005	 at 07:22:33	
Span:  Value:1.00  Date:18 Mar 2005	 at 07:25:09	
H2O
Zero:  Value:0.71  Date:18 Mar 2005	 at 07:52:31	
Span:  Value:0.99  Date:18 Mar 2005	 at 11:44:01	
	Relative Time	Temperature	Pressure	Aux Input	CO2 Absorptance	CO2 mmol/m3	CO2 mg/m3	CO2 umol/mol	H2O Absorptance	H2O mmol/m3	H2O g/m3	H2O mmol/mol	H2O(°C)	Cooler Voltage
	0.47	29.97	73.41	-0.00	0.0628	10.82	475.9	371.37	0.0800	646.0	11.627	22.18	14.23	1.74
	1.39	29.93	73.41	0.00	0.0638	10.88	478.7	373.42	0.0723	602.8	10.851	20.69	13.16	1.74
	2.39	29.93	73.41	0.00	0.0642	11.08	487.4	380.26	0.0687	538.9	9.699	18.50	11.45	1.74
	3.39	29.94	73.41	0.00	0.0642	11.04	485.8	378.98	0.0692	549.8	9.897	18.88	11.76	1.74
	4.39	29.94	73.38	0.00	0.0642	11.03	485.2	378.65	0.0680	539.9	9.719	18.54	11.49	1.74
	5.39	29.95	73.41	0.00	0.0642	11.04	485.7	378.96	0.0670	522.0	9.395	17.92	10.97	1.74
	6.41	29.97	73.41	-0.00	0.0642	11.05	486.3	379.46	0.0664	517.1	9.308	17.75	10.84	1.74
	7.41	29.97	73.41	-0.00	0.0642	11.05	486.1	379.25	0.0667	522.4	9.403	17.93	10.99	1.73
	8.39	29.96	73.41	0.00	0.0642	11.04	485.8	379.03	0.0668	522.7	9.409	17.95	11.00	1.73
	9.41	29.97	73.40	0.00	0.0641	11.04	485.6	378.86	0.0662	518.7	9.336	17.81	10.88	1.74
	10.41	29.97	73.40	-0.00	0.0641	11.03	485.3	378.67	0.0667	518.8	9.339	17.81	10.89	1.73
	11.38	29.99	73.41	0.00	0.0640	11.02	484.9	378.35	0.0665	518.7	9.336	17.81	10.88	1.74
	12.41	29.99	73.41	-0.00	0.0641	11.01	484.5	378.05	0.0662	516.4	9.296	17.73	10.82	1.73
	13.39	29.97	73.41	-0.00	0.0641	11.03	485.4	378.75	0.0662	514.7	9.265	17.67	10.77	1.73
	14.39	29.96	73.41	0.00	0.0641	11.01	484.5	378.06	0.0662	514.5	9.261	17.66	10.76	1.73
	15.39	29.99	73.41	-0.00	0.0642	11.03	485.5	378.81	0.0661	513.8	9.248	17.64	10.74	1.73
	16.39	29.98	73.41	0.00	0.0641	11.03	485.3	378.69	0.0658	510.3	9.185	17.52	10.64	1.74
	17.39	29.98	73.41	0.00	0.0641	11.01	484.5	378.04	0.0658	508.6	9.156	17.46	10.59	1.74
	18.39	29.98	73.41	0.00	0.0641	11.02	484.8	378.29	0.0658	510.2	9.183	17.52	10.63	1.73
	19.39	29.99	73.41	-0.00	0.0641	11.03	485.1	378.54	0.0663	514.2	9.255	17.65	10.75	1.73
	20.39	29.98	73.41	0.00	0.0641	11.02	485.1	378.51	0.0665	516.9	9.303	17.75	10.83	1.73
	21.39	30.03	73.43	0.00	0.0641	11.03	485.4	378.66	0.0667	518.0	9.324	17.78	10.87	1.73
	22.41	30.03	73.38	-0.00	0.0641	11.02	484.8	378.44	0.0665	517.0	9.306	17.76	10.84	1.73
	23.39	30.01	73.41	0.00	0.0640	11.01	484.4	377.97	0.0664	516.5	9.297	17.73	10.82	1.73
	24.38	30.01	73.41	0.00	0.0640	11.00	484.0	377.71	0.0662	514.8	9.266	17.68	10.77	1.73
	25.39	30.05	73.43	0.00	0.0641	11.02	484.7	378.16	0.0662	514.8	9.267	17.67	10.77	1.73
	26.39	30.05	73.43	-0.00	0.0640	11.01	484.6	378.10	0.0662	514.3	9.258	17.66	10.76	1.73
	27.39	30.03	73.43	0.00	0.0640	11.01	484.4	377.90	0.0663	515.4	9.277	17.69	10.79	1.73
	28.39	30.05	73.38	-0.00	0.0640	11.00	484.2	378.02	0.0661	514.0	9.251	17.66	10.75	1.73
	29.41	30.03	73.43	-0.00	0.0640	11.01	484.4	377.89	0.0662	514.0	9.251	17.64	10.75	1.73
	30.38	30.03	73.41	0.00	0.0640	11.01	484.4	378.03	0.0664	515.5	9.279	17.70	10.79	1.73
	31.39	30.04	73.41	0.00	0.0640	11.01	484.4	378.02	0.0664	516.4	9.296	17.73	10.82	1.73
	32.39	30.05	73.33	-0.00	0.0640	11.00	484.1	378.21	0.0663	516.5	9.296	17.75	10.82	1.73
	33.41	30.07	73.35	-0.00	0.0640	11.01	484.3	378.26	0.0663	515.7	9.283	17.72	10.80	1.74
	34.45	30.04	73.40	0.00	0.0640	10.99	483.6	377.46	0.0661	513.1	9.235	17.62	10.72	1.73
	35.39	30.05	73.41	0.00	0.0640	10.99	483.8	377.57	0.0661	515.0	9.269	17.68	10.78	1.73
	36.39	30.06	73.41	0.00	0.0640	10.99	483.7	377.54	0.0663	515.8	9.285	17.71	10.80	1.73
	37.41	30.06	73.41	-0.00	0.0640	10.99	483.6	377.46	0.0665	518.1	9.327	17.79	10.87	1.73
	38.39	30.07	73.41	-0.00	0.0639	10.99	483.7	377.51	0.0664	519.3	9.348	17.84	10.91	1.73
	39.41	30.06	73.41	0.00	0.0640	10.97	482.9	376.89	0.0665	514.7	9.264	17.68	10.77	1.74
	40.39	30.06	73.41	-0.00	0.0639	10.99	483.6	377.44	0.0662	518.8	9.338	17.82	10.89	1.74
	41.41	30.05	73.41	-0.00	0.0639	10.98	483.0	377.00	0.0668	518.9	9.341	17.82	10.89	1.73
	42.39	30.06	73.41	-0.00	0.0639	10.99	483.5	377.35	0.0668	521.5	9.387	17.91	10.97	1.74
	43.38	30.09	73.43	0.00	0.0639	10.98	483.2	377.03	0.0671	522.7	9.408	17.94	11.00	1.73
	44.47	30.08	73.41	-0.00	0.0639	10.98	483.3	377.23	0.0672	526.7	9.481	18.09	11.12	1.73
	45.39	30.08	73.41	-0.00	0.0639	10.98	483.2	377.19	0.0672	528.0	9.504	18.13	11.16	1.74
	46.41	30.08	73.41	-0.00	0.0638	10.97	482.7	376.73	0.0670	526.3	9.474	18.08	11.11	1.74
	47.38	30.11	73.38	0.00	0.0639	10.98	483.1	377.25	0.0675	530.0	9.539	18.21	11.21	1.73
	48.39	30.10	73.41	0.00	0.0639	10.99	483.5	377.43	0.0679	536.6	9.658	18.43	11.40	1.73
	49.38	30.10	73.41	0.00	0.0639	10.98	483.3	377.29	0.0679	533.7	9.607	18.33	11.32	1.73
	50.39	30.10	73.35	0.00	0.0639	10.98	483.0	377.29	0.0682	536.1	9.650	18.43	11.39	1.73
	51.39	30.10	73.41	0.00	0.0638	10.97	482.7	376.78	0.0681	535.4	9.638	18.39	11.37	1.74
	52.39	30.13	73.41	0.00	0.0639	10.97	482.8	376.93	0.0686	539.5	9.711	18.53	11.48	1.74
	53.39	30.13	73.43	0.00	0.0638	10.97	482.8	376.76	0.0686	539.4	9.709	18.52	11.48	1.73
	54.41	30.10	73.41	-0.00	0.0639	10.97	482.6	376.68	0.0688	542.9	9.773	18.65	11.58	1.73
	55.39	30.10	73.41	-0.00	0.0638	10.97	482.5	376.65	0.0687	543.6	9.785	18.67	11.60	1.73
	56.39	30.12	73.43	0.00	0.0639	10.97	482.7	376.72	0.0691	545.2	9.814	18.72	11.64	1.74
	57.39	30.12	73.41	0.00	0.0638	10.95	481.8	376.09	0.0686	543.0	9.774	18.65	11.58	1.74
	58.39	30.10	73.41	-0.00	0.0638	10.96	482.5	376.61	0.0691	547.7	9.859	18.81	11.71	1.74
	59.39	30.14	73.41	0.00	0.0638	10.96	482.1	376.35	0.0691	543.8	9.788	18.68	11.60	1.73
	60.38	30.12	73.43	0.00	0.0638	10.96	482.3	376.35	0.0692	546.2	9.831	18.75	11.67	1.74
	61.39	30.10	73.41	0.00	0.0638	10.95	481.9	376.21	0.0693	547.7	9.858	18.81	11.71	1.73
	62.38	30.14	73.38	0.00	0.0637	10.96	482.0	376.44	0.0688	548.5	9.872	18.85	11.73	1.73
	63.39	30.14	73.41	0.00	0.0638	10.95	481.8	376.12	0.0693	550.4	9.907	18.91	11.79	1.74
	64.38	30.14	73.41	0.00	0.0638	10.96	482.1	376.41	0.0693	549.8	9.896	18.89	11.77	1.74
	65.39	30.16	73.43	0.00	0.0638	10.96	482.4	376.54	0.0694	556.1	10.009	19.10	11.94	1.73
	66.38	30.14	73.41	0.00	0.0637	10.94	481.5	375.92	0.0694	547.9	9.862	18.82	11.72	1.74
	67.41	30.14	73.41	-0.00	0.0637	10.94	481.5	375.90	0.0692	551.8	9.932	18.95	11.82	1.74
	68.39	30.13	73.41	-0.00	0.0637	10.95	481.7	376.03	0.0698	555.6	10.001	19.08	11.93	1.73
	69.41	30.16	73.41	-0.00	0.0638	10.96	482.3	376.56	0.0700	559.2	10.066	19.21	12.03	1.74
	70.39	30.16	73.41	-0.00	0.0637	10.95	481.7	376.11	0.0697	556.6	10.019	19.12	11.96	1.74
	71.39	30.16	73.38	0.00	0.0637	10.94	481.5	376.05	0.0701	555.5	9.999	19.09	11.93	1.73
	72.39	30.16	73.41	0.00	0.0637	10.94	481.5	375.91	0.0704	561.7	10.111	19.30	12.10	1.74
	73.39	30.16	73.41	0.00	0.0637	10.94	481.5	375.93	0.0703	559.3	10.067	19.21	12.03	1.73
	74.45	30.18	73.41	0.00	0.0637	10.94	481.4	375.86	0.0699	560.0	10.080	19.24	12.05	1.74
	75.38	30.18	73.41	0.00	0.0636	10.93	481.0	375.59	0.0700	563.0	10.134	19.34	12.13	1.74
	76.39	30.18	73.43	-0.00	0.0637	10.94	481.3	375.64	0.0708	566.5	10.198	19.46	12.23	1.74
	77.38	30.21	73.41	0.00	0.0637	10.94	481.1	375.71	0.0709	569.3	10.247	19.56	12.30	1.73
	78.39	30.20	73.41	0.00	0.0637	10.93	481.0	375.58	0.0710	568.8	10.239	19.54	12.29	1.74
	79.39	30.18	73.38	-0.00	0.0637	10.94	481.5	376.05	0.0714	574.4	10.339	19.74	12.44	1.73
	80.39	30.20	73.41	-0.00	0.0637	10.93	480.8	375.40	0.0711	568.9	10.241	19.55	12.29	1.74
	81.39	30.18	73.43	-0.00	0.0637	10.93	480.9	375.37	0.0712	571.4	10.285	19.62	12.36	1.74
	82.41	30.20	73.41	-0.00	0.0637	10.92	480.7	375.33	0.0715	570.8	10.275	19.61	12.34	1.74
	83.38	30.20	73.41	0.00	0.0637	10.93	480.7	375.37	0.0714	572.6	10.306	19.67	12.39	1.73
	84.39	30.22	73.41	0.00	0.0636	10.93	481.1	375.69	0.0716	578.8	10.418	19.89	12.55	1.74
	85.38	30.22	73.41	0.00	0.0636	10.93	480.9	375.57	0.0714	576.8	10.383	19.82	12.50	1.74
	86.39	30.22	73.46	0.00	0.0637	10.92	480.5	374.95	0.0718	574.5	10.341	19.73	12.44	1.74
	87.39	30.21	73.38	-0.00	0.0637	10.93	480.9	375.65	0.0720	578.0	10.404	19.87	12.53	1.74
	88.39	30.22	73.41	0.00	0.0637	10.93	481.0	375.60	0.0722	583.6	10.504	20.05	12.68	1.74
	89.38	30.22	73.43	0.00	0.0636	10.92	480.4	375.03	0.0721	580.6	10.452	19.94	12.60	1.74
	90.38	30.22	73.41	0.00	0.0636	10.92	480.5	375.19	0.0725	586.8	10.562	20.16	12.76	1.74
	91.38	30.24	73.41	0.00	0.0637	10.93	480.9	375.57	0.0727	589.6	10.613	20.26	12.84	1.73
	92.39	30.22	73.41	-0.00	0.0636	10.93	480.8	375.48	0.0723	588.6	10.595	20.23	12.81	1.74
	93.39	30.26	73.41	0.00	0.0636	10.92	480.5	375.26	0.0729	588.8	10.598	20.23	12.82	1.74
	94.38	30.24	73.41	0.00	0.0637	10.92	480.7	375.39	0.0737	598.7	10.777	20.57	13.07	1.74
	95.39	30.26	73.41	-0.00	0.0636	10.91	480.0	374.91	0.0727	588.3	10.590	20.22	12.80	1.74
	96.38	30.26	73.41	0.00	0.0636	10.92	480.5	375.24	0.0734	600.3	10.805	20.63	13.11	1.74
	97.39	30.24	73.38	-0.00	0.0636	10.92	480.3	375.23	0.0741	604.1	10.874	20.77	13.21	1.74
	98.38	30.27	73.43	0.00	0.0636	10.91	479.9	374.66	0.0735	600.8	10.814	20.64	13.13	1.74
	99.39	30.28	73.41	0.00	0.0635	10.90	479.7	374.69	0.0734	597.9	10.762	20.55	13.05	1.74
	100.38	30.26	73.41	0.00	0.0636	10.90	479.8	374.72	0.0739	604.4	10.879	20.77	13.22	1.74
	101.47	30.25	73.38	-0.00	0.0636	10.92	480.5	375.44	0.0742	606.8	10.922	20.86	13.28	1.74
	102.39	30.29	73.41	-0.00	0.0636	10.92	480.6	375.36	0.0741	607.6	10.936	20.88	13.30	1.74
	103.39	30.28	73.38	0.00	0.0636	10.90	479.8	374.90	0.0741	604.7	10.884	20.79	13.23	1.74
	104.39	30.27	73.41	0.00	0.0636	10.91	479.9	374.85	0.0737	602.8	10.851	20.72	13.18	1.74
	105.39	30.31	73.41	0.00	0.0636	10.91	480.1	374.98	0.0740	605.3	10.896	20.80	13.24	1.74
	106.39	30.28	73.41	-0.00	0.0635	10.90	479.6	374.57	0.0737	597.4	10.752	20.53	13.04	1.74
	107.39	30.28	73.43	-0.00	0.0635	10.90	479.7	374.53	0.0736	604.4	10.879	20.76	13.22	1.74
	108.38	30.28	73.41	0.00	0.0636	10.90	479.8	374.72	0.0741	604.7	10.885	20.78	13.23	1.74
	109.38	30.27	73.41	0.00	0.0635	10.90	479.7	374.66	0.0738	604.5	10.882	20.78	13.22	1.74
	110.38	30.28	73.41	0.00	0.0636	10.90	479.8	374.76	0.0741	605.3	10.895	20.80	13.24	1.74
	111.39	30.28	73.43	-0.00	0.0636	10.91	479.9	374.74	0.0744	608.6	10.954	20.91	13.32	1.74
	112.38	30.28	73.38	0.00	0.0636	10.91	479.9	374.95	0.0743	607.4	10.934	20.88	13.30	1.74
	113.39	30.31	73.41	0.00	0.0635	10.89	479.2	374.35	0.0743	607.5	10.934	20.88	13.30	1.74
	114.41	30.30	73.38	-0.00	0.0636	10.90	479.6	374.80	0.0749	613.2	11.038	21.08	13.44	1.74
	115.39	30.30	73.38	0.00	0.0635	10.90	479.5	374.66	0.0745	614.3	11.057	21.12	13.47	1.74
	116.41	30.29	73.41	0.00	0.0636	10.91	480.1	374.97	0.0749	616.7	11.101	21.19	13.53	1.74
	117.39	30.30	73.41	0.00	0.0635	10.90	479.8	374.75	0.0749	614.0	11.052	21.10	13.46	1.74
	118.41	30.33	73.41	-0.00	0.0636	10.90	479.7	374.73	0.0751	618.5	11.133	21.26	13.57	1.74
	119.41	30.30	73.41	-0.00	0.0635	10.89	479.3	374.42	0.0748	615.1	11.072	21.14	13.49	1.74
	120.41	30.34	73.41	-0.00	0.0635	10.90	479.7	374.77	0.0750	617.9	11.123	21.24	13.56	1.74
	121.41	30.34	73.38	-0.00	0.0635	10.89	479.3	374.59	0.0749	618.5	11.134	21.27	13.58	1.74
	122.39	30.32	73.38	0.00	0.0635	10.89	479.4	374.59	0.0752	619.7	11.154	21.31	13.60	1.74
	123.41	30.34	73.41	-0.00	0.0635	10.90	479.6	374.65	0.0754	622.5	11.204	21.40	13.67	1.74
	124.39	30.32	73.41	0.00	0.0635	10.90	479.8	374.79	0.0752	622.5	11.206	21.40	13.67	1.74
	125.47	30.33	73.41	0.00	0.0635	10.89	479.2	374.37	0.0754	621.6	11.188	21.36	13.65	1.74
	126.39	30.34	73.41	0.00	0.0635	10.89	479.2	374.37	0.0752	621.8	11.192	21.37	13.66	1.74
	127.39	30.33	73.40	0.00	0.0635	10.89	479.2	374.36	0.0752	623.3	11.220	21.42	13.69	1.74
	128.41	30.34	73.43	-0.00	0.0635	10.89	479.2	374.25	0.0751	618.3	11.129	21.25	13.57	1.74
	129.41	30.34	73.41	-0.00	0.0635	10.89	479.3	374.42	0.0756	623.1	11.216	21.42	13.69	1.74
	130.39	30.31	73.41	0.00	0.0635	10.89	479.2	374.36	0.0759	626.7	11.281	21.54	13.78	1.74
	131.41	30.38	73.38	-0.00	0.0635	10.89	479.3	374.63	0.0759	628.1	11.306	21.60	13.81	1.74
	132.39	30.41	73.41	0.00	0.0635	10.89	479.1	374.37	0.0755	624.4	11.239	21.47	13.72	1.74
	133.41	30.36	73.43	-0.00	0.0634	10.88	478.8	373.92	0.0759	625.9	11.266	21.51	13.76	1.74
	134.41	30.38	73.38	-0.00	0.0634	10.88	478.6	374.07	0.0760	624.1	11.233	21.46	13.72	1.74
	135.41	30.36	73.41	0.00	0.0635	10.89	479.0	374.21	0.0761	630.2	11.344	21.66	13.87	1.74
	136.39	30.36	73.41	0.00	0.0635	10.88	478.5	373.85	0.0762	630.0	11.340	21.66	13.86	1.74
	137.41	30.35	73.41	0.00	0.0635	10.89	479.2	374.35	0.0762	631.2	11.362	21.70	13.89	1.74
	138.39	30.33	73.40	-0.00	0.0635	10.89	479.0	374.19	0.0766	634.8	11.426	21.82	13.97	1.74
	139.39	30.40	73.43	0.00	0.0635	10.89	479.1	374.23	0.0762	633.7	11.407	21.78	13.95	1.74
	140.41	30.40	73.41	0.00	0.0634	10.88	478.9	374.20	0.0763	633.5	11.403	21.78	13.95	1.74
	141.39	30.37	73.38	0.00	0.0634	10.87	478.4	373.91	0.0761	631.0	11.358	21.70	13.88	1.74
	142.41	30.38	73.41	-0.00	0.0634	10.88	478.7	374.03	0.0765	635.0	11.430	21.83	13.98	1.74
	143.48	30.40	73.41	-0.00	0.0634	10.88	478.7	374.03	0.0764	634.9	11.429	21.83	13.98	1.74
	144.39	30.40	73.41	0.00	0.0635	10.88	478.8	374.11	0.0766	637.9	11.483	21.93	14.05	1.74
	145.41	30.40	73.41	-0.00	0.0633	10.86	477.9	373.40	0.0762	633.8	11.408	21.79	13.95	1.74
	146.41	30.39	73.43	-0.00	0.0635	10.88	478.6	373.81	0.0769	640.0	11.521	22.00	14.11	1.74
	147.41	30.40	73.43	-0.00	0.0635	10.89	479.0	374.18	0.0770	640.6	11.530	22.02	14.12	1.74
	148.41	30.40	73.43	-0.00	0.0635	10.88	478.6	373.85	0.0771	644.0	11.592	22.13	14.20	1.74
	149.39	30.40	73.41	0.00	0.0634	10.88	478.5	373.90	0.0769	640.8	11.535	22.03	14.12	1.74
	150.41	30.42	73.43	0.00	0.0634	10.87	478.3	373.58	0.0766	638.4	11.491	21.94	14.07	1.74
	151.39	30.37	73.41	0.00	0.0634	10.86	478.0	373.45	0.0768	642.7	11.569	22.09	14.17	1.74
	152.47	30.41	73.40	0.00	0.0634	10.88	478.5	373.91	0.0769	642.6	11.566	22.09	14.17	1.74
	153.39	30.41	73.41	0.00	0.0634	10.85	477.6	373.15	0.0770	638.6	11.495	21.96	14.07	1.74
	154.41	30.42	73.41	-0.00	0.0634	10.87	478.2	373.67	0.0770	642.7	11.568	22.10	14.17	1.74
	155.39	30.44	73.41	0.00	0.0634	10.87	478.5	373.93	0.0773	645.0	11.610	22.18	14.23	1.74
	156.39	30.42	73.41	0.00	0.0634	10.86	477.7	373.29	0.0770	642.3	11.561	22.08	14.16	1.74
	157.41	30.42	73.41	-0.00	0.0634	10.86	477.9	373.45	0.0773	644.0	11.593	22.14	14.20	1.74
	158.39	30.42	73.41	0.00	0.0633	10.86	477.9	373.45	0.0773	644.7	11.604	22.17	14.22	1.74
	159.41	30.42	73.41	-0.00	0.0634	10.86	477.9	373.46	0.0777	647.6	11.657	22.27	14.29	1.74
	160.39	30.42	73.41	0.00	0.0634	10.88	478.8	374.15	0.0778	653.1	11.755	22.45	14.42	1.74
	161.39	30.42	73.41	0.00	0.0634	10.87	478.1	373.57	0.0776	646.6	11.639	22.23	14.26	1.74
	162.41	30.46	73.41	-0.00	0.0634	10.87	478.4	373.91	0.0778	651.9	11.734	22.42	14.39	1.74
	163.41	30.42	73.41	-0.00	0.0634	10.87	478.4	373.85	0.0776	650.2	11.704	22.36	14.35	1.74
	164.39	30.42	73.41	0.00	0.0634	10.87	478.3	373.74	0.0777	652.2	11.740	22.43	14.40	1.74
	165.41	30.44	73.41	-0.00	0.0634	10.86	478.0	373.50	0.0776	649.3	11.688	22.33	14.33	1.74
	166.41	30.44	73.38	-0.00	0.0634	10.86	478.0	373.65	0.0777	651.5	11.726	22.41	14.38	1.74
	167.41	30.44	73.41	-0.00	0.0633	10.86	477.8	373.41	0.0777	650.8	11.714	22.38	14.36	1.74
	168.39	30.44	73.41	0.00	0.0634	10.86	477.8	373.40	0.0780	653.6	11.764	22.47	14.43	1.74
	169.41	30.44	73.41	-0.00	0.0633	10.86	477.7	373.27	0.0780	654.9	11.789	22.52	14.46	1.74
	170.39	30.44	73.41	0.00	0.0633	10.87	478.1	373.63	0.0781	660.4	11.887	22.71	14.59	1.74
	171.41	30.44	73.41	-0.00	0.0633	10.85	477.6	373.22	0.0783	658.3	11.849	22.64	14.54	1.74
	172.39	30.44	73.38	0.00	0.0634	10.87	478.2	373.86	0.0788	661.9	11.915	22.77	14.63	1.74
	173.47	30.46	73.38	0.00	0.0633	10.85	477.5	373.33	0.0785	660.4	11.886	22.72	14.59	1.74
	174.41	30.44	73.41	-0.00	0.0634	10.85	477.6	373.21	0.0786	658.4	11.850	22.64	14.54	1.74
	175.47	30.46	73.41	0.00	0.0633	10.85	477.3	373.01	0.0780	656.6	11.818	22.58	14.50	1.74
	176.41	30.46	73.41	-0.00	0.0633	10.86	477.7	373.37	0.0789	665.7	11.982	22.89	14.72	1.74
	177.39	30.48	73.43	0.00	0.0633	10.85	477.2	372.84	0.0789	663.5	11.943	22.81	14.67	1.74
