Jul 29 2015 at 14:18:24
Frequency: 1.00Hz.
CO2
Zero:  Value:0.95  Date:18 Mar 2005	 at 07:22:33	
Span:  Value:1.00  Date:18 Mar 2005	 at 07:25:09	
H2O
Zero:  Value:0.71  Date:18 Mar 2005	 at 07:52:31	
Span:  Value:0.99  Date:18 Mar 2005	 at 11:44:01	
	Relative Time	Temperature	Pressure	Aux Input	CO2 Absorptance	CO2 mmol/m3	CO2 mg/m3	CO2 umol/mol	H2O Absorptance	H2O mmol/m3	H2O g/m3	H2O mmol/mol	H2O(°C)	Cooler Voltage
	0.36	37.24	73.80	-0.00	0.0654	11.32	497.9	395.70	0.0423	288.0	5.184	10.07	2.67	1.78
	1.38	37.30	73.80	-0.00	0.0656	11.28	496.2	394.42	0.0434	277.4	4.993	9.70	2.14	1.78
	2.36	37.28	73.77	0.00	0.0654	11.30	497.4	395.49	0.0445	293.1	5.276	10.25	2.92	1.78
	3.34	37.38	73.80	0.00	0.0654	11.28	496.3	394.60	0.0440	289.5	5.211	10.13	2.75	1.79
	4.34	37.36	73.77	0.00	0.0654	11.34	498.8	396.74	0.0441	290.4	5.227	10.16	2.79	1.79
	5.36	37.28	73.82	0.00	0.0653	11.29	496.8	394.75	0.0442	294.7	5.305	10.30	2.99	1.79
	6.42	37.28	73.77	0.00	0.0649	11.21	493.2	392.18	0.0458	301.1	5.420	10.53	3.30	1.78
	7.36	37.26	73.77	-0.00	0.0650	11.26	495.3	393.77	0.0464	308.4	5.552	10.79	3.64	1.78
	8.38	37.24	73.77	-0.00	0.0652	11.26	495.4	393.89	0.0456	305.5	5.499	10.69	3.50	1.78
	9.36	37.23	73.80	0.00	0.0650	11.24	494.5	393.01	0.0450	304.1	5.474	10.63	3.43	1.79
	10.36	37.27	73.77	0.00	0.0649	11.21	493.1	392.10	0.0445	299.9	5.399	10.49	3.24	1.78
	11.38	37.23	73.77	-0.00	0.0651	11.19	492.3	391.40	0.0443	293.2	5.278	10.26	2.92	1.78
	12.36	37.22	73.80	0.00	0.0651	11.25	494.9	393.32	0.0450	295.6	5.320	10.34	3.03	1.78
	13.36	37.20	73.80	-0.00	0.0652	11.15	490.6	389.84	0.0455	305.4	5.497	10.68	3.49	1.78
	14.36	37.22	73.82	-0.00	0.0650	11.24	494.6	392.95	0.0447	298.8	5.378	10.44	3.19	1.78
	15.36	37.23	73.80	0.00	0.0649	11.16	490.9	390.13	0.0456	311.7	5.610	10.90	3.78	1.79
	16.36	37.24	73.77	-0.00	0.0650	11.17	491.5	390.73	0.0462	314.7	5.664	11.01	3.92	1.78
	17.36	37.22	73.77	-0.00	0.0649	11.17	491.5	390.72	0.0461	314.4	5.659	11.00	3.91	1.78
	18.34	37.21	73.80	0.00	0.0652	11.21	493.4	392.12	0.0458	307.0	5.525	10.73	3.57	1.78
	19.36	37.24	73.77	0.00	0.0648	11.19	492.5	391.60	0.0462	311.7	5.611	10.90	3.79	1.78
	20.36	37.21	73.80	0.00	0.0648	11.20	492.9	391.68	0.0467	314.5	5.661	11.00	3.91	1.79
	21.36	37.24	73.77	-0.00	0.0646	11.09	487.9	387.89	0.0478	325.0	5.851	11.37	4.38	1.79
	22.38	37.23	73.77	-0.00	0.0646	11.13	489.6	389.25	0.0477	326.0	5.868	11.40	4.42	1.78
	23.36	37.18	73.80	0.00	0.0645	11.10	488.6	388.23	0.0480	326.1	5.869	11.40	4.42	1.78
	24.36	37.22	73.80	0.00	0.0646	11.12	489.4	388.93	0.0503	348.7	6.277	12.19	5.39	1.78
	25.34	37.25	73.80	0.00	0.0645	11.10	488.6	388.33	0.0504	347.7	6.258	12.16	5.35	1.78
	26.36	37.20	73.82	-0.00	0.0645	11.09	488.2	387.78	0.0515	358.4	6.452	12.53	5.78	1.79
	27.36	37.19	73.80	-0.00	0.0644	11.09	488.2	387.90	0.0529	376.5	6.777	13.16	6.49	1.79
	28.36	37.17	73.75	-0.00	0.0643	11.06	486.7	387.00	0.0528	371.9	6.694	13.01	6.31	1.78
	29.38	37.20	73.77	-0.00	0.0645	11.10	488.4	388.26	0.0527	373.2	6.718	13.05	6.37	1.78
	30.42	37.15	73.80	0.00	0.0645	11.10	488.5	388.12	0.0536	382.9	6.892	13.39	6.74	1.79
	31.34	37.18	73.77	0.00	0.0644	11.08	487.6	387.58	0.0542	386.4	6.956	13.52	6.87	1.78
	32.38	37.18	73.80	-0.00	0.0644	11.07	487.2	387.09	0.0536	384.1	6.914	13.43	6.79	1.79
	33.36	37.10	73.80	0.00	0.0643	11.06	486.5	386.48	0.0551	393.9	7.089	13.77	7.15	1.79
	34.34	37.15	73.82	0.00	0.0643	11.06	486.6	386.46	0.0561	405.3	7.296	14.17	7.57	1.78
	35.34	37.09	73.80	0.00	0.0643	11.06	486.5	386.46	0.0555	399.9	7.199	13.98	7.37	1.79
	36.36	37.15	73.74	0.00	0.0642	11.04	485.9	386.35	0.0543	393.4	7.082	13.76	7.13	1.79
	37.36	37.11	73.77	0.00	0.0646	11.10	488.4	388.12	0.0551	391.9	7.054	13.70	7.08	1.79
	38.36	37.18	73.80	-0.00	0.0645	11.12	489.4	388.86	0.0567	414.7	7.464	14.50	7.90	1.79
	39.36	37.14	73.80	0.00	0.0642	11.05	486.1	386.22	0.0557	406.0	7.308	14.19	7.59	1.79
	40.36	37.20	73.77	-0.00	0.0642	11.03	485.2	385.69	0.0570	412.8	7.431	14.44	7.84	1.79
	41.36	37.14	73.80	-0.00	0.0646	11.12	489.3	388.75	0.0581	425.1	7.653	14.86	8.27	1.79
	42.36	37.17	73.77	-0.00	0.0648	11.14	490.0	389.47	0.0583	426.5	7.677	14.92	8.32	1.79
	43.36	37.17	73.80	0.00	0.0646	11.15	490.7	389.91	0.0586	436.4	7.856	15.26	8.66	1.79
	44.36	37.25	73.82	-0.00	0.0650	11.18	491.9	390.86	0.0597	439.8	7.916	15.37	8.77	1.79
	45.36	37.17	73.80	0.00	0.0649	11.13	489.7	389.07	0.0598	442.2	7.959	15.46	8.85	1.79
	46.36	37.22	73.80	0.00	0.0651	11.18	491.8	390.84	0.0607	448.0	8.064	15.67	9.05	1.79
	47.34	37.22	73.80	0.00	0.0649	11.17	491.3	390.42	0.0605	451.6	8.128	15.79	9.16	1.79
	48.34	37.23	73.80	0.00	0.0648	11.18	491.7	390.78	0.0607	454.2	8.176	15.88	9.25	1.79
	49.36	37.31	73.77	-0.00	0.0647	11.16	491.1	390.51	0.0609	457.9	8.242	16.02	9.37	1.79
	50.36	37.26	73.80	0.00	0.0648	11.16	491.3	390.44	0.0612	457.2	8.230	15.99	9.35	1.79
	51.34	37.35	73.77	0.00	0.0649	11.20	492.7	391.83	0.0615	463.7	8.346	16.23	9.56	1.79
	52.34	37.31	73.82	0.00	0.0646	11.15	490.7	389.91	0.0623	464.3	8.357	16.23	9.58	1.79
	53.36	37.31	73.80	-0.00	0.0647	11.17	491.3	390.54	0.0620	461.5	8.307	16.14	9.49	1.79
	54.36	37.29	73.80	-0.00	0.0644	11.08	487.7	387.69	0.0639	487.8	8.780	17.06	10.32	1.79
	55.34	37.30	73.77	0.00	0.0646	11.11	489.0	388.81	0.0639	487.7	8.779	17.06	10.32	1.79
	56.44	37.28	73.80	-0.00	0.0644	11.06	486.6	386.79	0.0668	512.7	9.229	17.93	11.07	1.79
	57.36	37.31	73.80	0.00	0.0641	11.00	484.1	384.83	0.0662	519.9	9.357	18.18	11.28	1.79
	58.36	37.30	73.80	-0.00	0.0645	11.08	487.4	387.41	0.0640	498.6	8.975	17.44	10.65	1.79
	59.34	37.34	73.80	0.00	0.0644	11.06	486.7	386.96	0.0648	508.9	9.160	17.80	10.96	1.79
	60.36	37.35	73.80	0.00	0.0643	11.02	485.1	385.66	0.0635	488.1	8.785	17.07	10.33	1.79
	61.34	37.33	73.82	0.00	0.0646	11.13	489.6	389.11	0.0644	493.3	8.879	17.25	10.49	1.79
	62.34	37.36	73.77	0.00	0.0642	11.03	485.2	385.90	0.0647	492.1	8.858	17.22	10.45	1.79
	63.34	37.38	73.80	0.00	0.0645	11.10	488.4	388.32	0.0635	484.5	8.721	16.95	10.22	1.79
	64.34	37.37	73.80	0.00	0.0643	11.05	486.3	386.68	0.0655	503.1	9.056	17.60	10.79	1.79
	65.34	37.35	73.80	0.00	0.0645	11.08	487.7	387.74	0.0641	495.4	8.916	17.33	10.55	1.79
	66.36	37.34	73.80	0.00	0.0647	11.16	491.2	390.52	0.0645	494.5	8.901	17.30	10.52	1.79
	67.36	37.29	73.77	0.00	0.0643	11.05	486.0	386.46	0.0658	514.1	9.253	17.99	11.11	1.79
	68.36	37.35	73.77	-0.00	0.0639	11.01	484.4	385.21	0.0670	519.5	9.350	18.18	11.27	1.79
	69.36	37.35	73.80	-0.00	0.0637	10.94	481.2	382.60	0.0684	538.0	9.683	18.82	11.79	1.79
	70.34	37.36	73.75	0.00	0.0641	11.02	484.7	385.61	0.0671	519.4	9.350	18.18	11.27	1.79
	71.36	37.36	73.77	0.00	0.0642	11.04	485.8	386.38	0.0680	531.1	9.560	18.59	11.60	1.79
	72.34	37.33	73.80	0.00	0.0638	10.96	482.3	383.40	0.0685	533.4	9.602	18.66	11.67	1.79
	73.44	37.34	73.80	0.00	0.0639	11.00	484.2	384.94	0.0686	537.1	9.668	18.79	11.77	1.79
	74.36	37.35	73.77	-0.00	0.0641	10.96	482.1	383.40	0.0679	541.8	9.752	18.96	11.90	1.79
	75.34	37.29	73.80	0.00	0.0640	11.02	485.0	385.49	0.0663	518.3	9.329	18.13	11.23	1.79
	76.36	37.35	73.80	-0.00	0.0641	11.01	484.3	385.04	0.0677	527.4	9.493	18.45	11.50	1.79
	77.36	37.31	73.77	0.00	0.0639	10.95	481.6	382.99	0.0683	548.1	9.866	19.18	12.08	1.79
	78.34	37.31	73.80	0.00	0.0636	10.91	480.2	381.74	0.0688	543.7	9.786	19.02	11.95	1.79
	79.34	37.28	73.80	0.00	0.0637	10.91	480.2	381.71	0.0692	547.6	9.856	19.15	12.06	1.79
	80.34	37.27	73.80	0.00	0.0637	10.94	481.3	382.58	0.0698	551.6	9.929	19.29	12.17	1.79
	81.36	37.27	73.80	-0.00	0.0637	10.93	480.9	382.26	0.0691	544.1	9.794	19.03	11.96	1.79
	82.36	37.24	73.80	-0.00	0.0636	10.93	480.9	382.22	0.0688	542.5	9.765	18.97	11.92	1.79
	83.36	37.24	73.77	-0.00	0.0637	10.91	480.1	381.66	0.0683	538.3	9.689	18.83	11.80	1.79
	84.36	37.22	73.80	-0.00	0.0643	11.06	486.6	386.68	0.0687	544.1	9.794	19.03	11.96	1.80
	85.36	37.22	73.80	-0.00	0.0637	10.94	481.5	382.63	0.0692	542.2	9.760	18.96	11.91	1.79
	86.36	37.22	73.80	-0.00	0.0635	10.90	479.6	381.10	0.0705	561.5	10.108	19.64	12.44	1.79
	87.34	37.22	73.80	0.00	0.0634	10.85	477.5	379.45	0.0713	567.7	10.218	19.85	12.61	1.79
	88.36	37.29	73.80	-0.00	0.0633	10.83	476.6	378.87	0.0728	586.2	10.551	20.50	13.10	1.79
	89.34	37.20	73.80	0.00	0.0634	10.84	477.1	379.13	0.0728	589.7	10.615	20.62	13.19	1.79
	90.34	37.22	73.80	0.00	0.0637	10.93	481.1	382.34	0.0704	562.6	10.127	19.67	12.47	1.80
	91.36	37.20	73.80	-0.00	0.0637	10.95	481.7	382.77	0.0700	558.2	10.048	19.52	12.35	1.80
	92.34	37.14	73.80	0.00	0.0637	10.96	482.1	383.03	0.0718	573.0	10.314	20.03	12.74	1.79
	93.34	37.14	73.80	0.00	0.0636	10.94	481.3	382.40	0.0701	562.4	10.123	19.66	12.46	1.79
	94.34	37.12	73.80	0.00	0.0639	10.96	482.1	383.02	0.0707	566.7	10.201	19.81	12.57	1.79
	95.36	37.13	73.85	-0.00	0.0635	10.87	478.5	379.88	0.0717	580.9	10.457	20.29	12.95	1.79
	96.36	37.10	73.80	0.00	0.0640	10.96	482.3	383.13	0.0710	571.0	10.279	19.96	12.69	1.80
	97.42	37.14	73.80	-0.00	0.0636	10.93	480.9	382.10	0.0710	568.4	10.231	19.87	12.62	1.80
	98.36	37.15	73.85	-0.00	0.0637	10.89	479.3	380.56	0.0717	570.5	10.268	19.93	12.68	1.79
	99.34	37.14	73.80	0.00	0.0630	10.75	473.2	375.97	0.0748	616.6	11.099	21.56	13.87	1.80
	100.34	37.12	73.80	0.00	0.0637	10.88	478.9	380.42	0.0719	585.0	10.531	20.45	13.06	1.79
	101.42	37.15	73.75	0.00	0.0634	10.88	478.7	380.60	0.0734	591.5	10.647	20.69	13.23	1.80
	102.36	37.10	73.80	0.00	0.0631	10.80	475.1	377.44	0.0735	592.3	10.662	20.70	13.25	1.80
	103.36	37.15	73.82	-0.00	0.0632	10.80	475.0	377.30	0.0775	643.5	11.582	22.49	14.53	1.80
	104.34	37.14	73.80	0.00	0.0637	10.91	480.2	381.52	0.0782	650.9	11.715	22.75	14.70	1.80
	105.36	37.15	73.82	-0.00	0.0637	10.93	480.8	381.87	0.0781	657.1	11.828	22.96	14.85	1.80
	106.36	37.17	73.80	0.00	0.0633	10.85	477.3	379.25	0.0778	649.9	11.698	22.72	14.68	1.80
	107.34	37.12	73.80	0.00	0.0631	10.80	475.1	377.48	0.0771	650.9	11.717	22.75	14.70	1.80
	108.42	37.14	73.80	0.00	0.0634	10.83	476.5	378.58	0.0756	635.6	11.440	22.22	14.34	1.80
	109.34	37.13	73.80	0.00	0.0630	10.79	474.6	377.09	0.0768	629.9	11.339	22.02	14.20	1.80
	110.34	37.09	73.80	0.00	0.0630	10.75	473.1	375.81	0.0791	665.9	11.986	23.27	15.06	1.80
	111.34	37.13	73.82	0.00	0.0630	10.77	473.8	376.27	0.0779	661.3	11.904	23.11	14.95	1.80
	112.34	37.13	73.82	0.00	0.0630	10.76	473.5	376.06	0.0752	619.3	11.147	21.64	13.93	1.80
	113.34	37.13	73.85	0.00	0.0633	10.82	476.1	377.98	0.0760	630.9	11.357	22.04	14.22	1.80
	114.34	37.13	73.80	0.00	0.0634	10.83	476.5	378.54	0.0746	607.0	10.925	21.22	13.63	1.80
	115.36	37.10	73.80	0.00	0.0634	10.85	477.3	379.14	0.0759	626.3	11.273	21.89	14.11	1.80
	116.34	37.15	73.82	0.00	0.0635	10.85	477.4	379.15	0.0753	618.8	11.138	21.63	13.92	1.80
	117.36	37.15	73.80	-0.00	0.0637	10.91	480.2	381.56	0.0753	618.5	11.132	21.62	13.92	1.80
	118.42	37.12	73.80	0.00	0.0635	10.88	478.8	380.42	0.0750	614.2	11.056	21.47	13.81	1.80
	119.36	37.10	73.82	-0.00	0.0635	10.87	478.4	379.90	0.0759	625.4	11.257	21.85	14.08	1.80
	120.34	37.12	73.80	0.00	0.0633	10.83	476.6	378.65	0.0759	626.1	11.270	21.89	14.10	1.80
	121.34	37.14	73.82	0.00	0.0630	10.77	474.0	376.49	0.0787	659.0	11.861	23.03	14.90	1.80
	122.34	37.13	73.80	0.00	0.0630	10.77	473.7	376.33	0.0794	668.4	12.031	23.36	15.12	1.80
	123.36	37.13	73.80	-0.00	0.0631	10.79	474.8	377.22	0.0792	670.7	12.073	23.45	15.17	1.80
	124.34	37.04	73.80	0.00	0.0636	10.91	480.0	381.23	0.0766	632.9	11.392	22.12	14.27	1.80
	125.34	37.13	73.77	-0.00	0.0636	10.88	478.6	380.36	0.0770	644.7	11.604	22.54	14.56	1.80
	126.34	37.12	73.80	0.00	0.0635	10.89	479.0	380.51	0.0778	652.5	11.744	22.81	14.74	1.80
	127.36	37.12	73.80	0.00	0.0633	10.81	475.5	377.76	0.0768	662.4	11.923	23.15	14.98	1.80
	128.34	37.15	73.80	0.00	0.0632	10.79	474.9	377.31	0.0803	680.3	12.246	23.78	15.39	1.80
	129.34	37.15	73.80	0.00	0.0635	10.91	480.1	381.45	0.0803	674.3	12.137	23.57	15.25	1.80
	130.34	37.15	73.82	0.00	0.0633	10.83	476.7	378.65	0.0831	718.0	12.923	25.09	16.23	1.80
	131.34	37.15	73.80	0.00	0.0635	10.90	479.6	381.04	0.0793	658.0	11.845	23.00	14.88	1.80
	132.34	37.15	73.77	-0.00	0.0631	10.81	475.5	377.96	0.0829	701.1	12.620	24.52	15.86	1.80
