Jul 29 2015 at 13:49:53
Frequency: 1.00Hz.
CO2
Zero:  Value:0.95  Date:18 Mar 2005	 at 07:22:33	
Span:  Value:1.00  Date:18 Mar 2005	 at 07:25:09	
H2O
Zero:  Value:0.71  Date:18 Mar 2005	 at 07:52:31	
Span:  Value:0.99  Date:18 Mar 2005	 at 11:44:01	
	Relative Time	Temperature	Pressure	Aux Input	CO2 Absorptance	CO2 mmol/m3	CO2 mg/m3	CO2 umol/mol	H2O Absorptance	H2O mmol/m3	H2O g/m3	H2O mmol/mol	H2O(°C)	Cooler Voltage
	0.33	36.64	73.85	0.00	0.0662	11.49	505.6	400.75	0.0406	265.5	4.779	9.26	1.50	1.74
	1.34	36.64	73.85	-0.00	0.0671	11.68	514.1	407.49	0.0424	275.0	4.950	9.59	1.99	1.74
	2.33	36.67	73.85	-0.00	0.0695	12.14	534.2	423.44	0.0501	337.1	6.067	11.76	4.87	1.74
	3.33	36.64	73.85	0.00	0.0684	11.98	527.2	417.86	0.0493	335.2	6.034	11.69	4.79	1.74
	4.34	36.62	73.82	0.00	0.0673	11.76	517.6	410.39	0.0460	299.1	5.383	10.43	3.17	1.74
	5.33	36.64	73.82	-0.00	0.0676	11.84	520.9	413.08	0.0361	283.6	5.105	9.89	2.42	1.74
	6.33	36.60	73.82	0.00	0.0713	11.66	513.0	406.73	0.0203	136.3	2.453	4.75	-7.46	1.74
	7.33	36.62	73.85	0.00	0.0673	11.67	513.7	407.16	0.0388	205.3	3.696	7.16	-2.03	1.74
	8.33	36.61	73.85	0.00	0.0672	11.74	516.4	409.26	0.0335	197.1	3.549	6.87	-2.58	1.74
	9.33	36.61	73.85	0.00	0.0672	11.68	514.1	407.44	0.0349	215.4	3.878	7.51	-1.38	1.74
	10.33	36.65	73.85	0.00	0.0673	11.71	515.1	408.30	0.0318	197.2	3.549	6.88	-2.58	1.74
	11.34	36.60	73.82	-0.00	0.0672	11.68	513.8	407.37	0.0333	197.5	3.555	6.89	-2.56	1.74
	12.33	36.64	73.90	0.00	0.0674	11.75	517.1	409.58	0.0308	189.2	3.406	6.60	-3.13	1.74
	13.33	36.68	73.82	0.00	0.0675	11.68	514.0	407.65	0.0332	203.0	3.654	7.08	-2.18	1.74
	14.33	36.69	73.82	0.00	0.0674	11.74	516.7	409.73	0.0388	247.9	4.463	8.65	0.55	1.74
	15.33	36.69	73.85	0.00	0.0674	11.72	515.7	408.88	0.0382	244.3	4.397	8.52	0.35	1.74
	16.33	36.69	73.82	-0.00	0.0671	11.73	515.9	409.14	0.0380	242.9	4.373	8.48	0.27	1.74
	17.34	36.71	73.82	0.00	0.0673	11.70	514.7	408.24	0.0385	245.6	4.422	8.57	0.42	1.74
	18.33	36.69	73.85	0.00	0.0672	11.69	514.4	407.78	0.0384	245.6	4.421	8.57	0.42	1.74
	19.33	36.71	73.85	0.00	0.0671	11.66	513.2	406.89	0.0391	251.9	4.535	8.79	0.77	1.74
	20.33	36.71	73.82	0.00	0.0672	11.53	507.2	402.30	0.0321	205.2	3.694	7.16	-2.03	1.74
	21.33	36.77	73.85	0.00	0.0686	12.10	532.4	422.19	0.0297	214.4	3.859	7.48	-1.44	1.74
	22.33	36.74	73.80	-0.00	0.0659	11.46	504.4	400.27	0.0377	234.5	4.222	8.19	-0.21	1.74
	23.31	36.77	73.85	0.00	0.0671	11.65	512.5	406.37	0.0380	240.3	4.326	8.39	0.13	1.74
	24.34	36.77	73.85	0.00	0.0669	11.64	512.1	406.08	0.0380	242.8	4.370	8.47	0.27	1.74
	25.34	36.70	73.85	-0.00	0.0668	11.60	510.5	404.73	0.0381	241.8	4.352	8.43	0.21	1.74
	26.33	36.71	73.82	0.00	0.0668	11.62	511.5	405.66	0.0384	244.3	4.397	8.52	0.35	1.74
	27.34	36.76	73.85	0.00	0.0669	11.60	510.4	404.74	0.0395	248.5	4.473	8.67	0.59	1.74
	28.33	36.77	73.85	0.00	0.0665	11.54	507.9	402.74	0.0450	295.9	5.325	10.32	3.02	1.74
	29.33	36.76	73.85	0.00	0.0664	11.51	506.3	401.51	0.0442	294.9	5.309	10.29	2.98	1.73
	30.31	36.76	73.87	0.00	0.0664	11.50	506.1	401.19	0.0427	282.4	5.084	9.85	2.37	1.74
	31.34	36.77	73.85	-0.00	0.0663	11.51	506.5	401.61	0.0426	282.0	5.077	9.84	2.35	1.74
	32.33	36.73	73.82	0.00	0.0662	11.47	504.8	400.39	0.0445	287.7	5.178	10.04	2.63	1.74
	33.33	36.77	73.85	-0.00	0.0661	11.45	503.6	399.33	0.0447	296.9	5.345	10.36	3.07	1.74
	34.33	36.77	73.85	0.00	0.0660	11.42	502.5	398.45	0.0461	310.6	5.592	10.84	3.71	1.74
	35.33	36.73	73.80	0.00	0.0658	11.40	501.8	398.14	0.0460	311.7	5.611	10.88	3.76	1.73
	36.31	36.77	73.85	0.00	0.0658	11.39	501.3	397.50	0.0462	309.9	5.579	10.81	3.68	1.74
	37.33	36.74	73.82	0.00	0.0658	11.39	501.0	397.35	0.0465	311.3	5.604	10.86	3.74	1.74
	38.34	36.79	73.82	-0.00	0.0657	11.36	500.0	396.65	0.0482	328.0	5.903	11.45	4.49	1.74
	39.33	36.79	73.85	0.00	0.0654	11.31	497.6	394.64	0.0503	350.1	6.302	12.22	5.42	1.73
	40.33	36.78	73.85	-0.00	0.0652	11.26	495.4	392.85	0.0535	378.8	6.818	13.22	6.56	1.74
	41.34	36.78	73.82	-0.00	0.0653	11.25	495.2	392.81	0.0528	375.9	6.766	13.12	6.45	1.74
	42.33	36.77	73.85	0.00	0.0654	11.29	496.8	393.96	0.0515	360.4	6.488	12.58	5.84	1.74
	43.33	36.72	73.85	-0.00	0.0655	11.31	497.8	394.66	0.0537	381.8	6.872	13.32	6.67	1.74
	44.33	36.75	73.82	0.00	0.0655	11.29	497.0	394.19	0.0558	398.8	7.179	13.92	7.31	1.74
	45.41	36.76	73.85	0.00	0.0655	11.33	498.3	395.15	0.0556	400.2	7.204	13.96	7.37	1.73
	46.31	36.76	73.85	0.00	0.0654	11.30	497.1	394.18	0.0572	415.5	7.479	14.50	7.91	1.74
	47.31	36.79	73.82	0.00	0.0653	11.27	496.0	393.46	0.0572	419.2	7.546	14.63	8.05	1.74
	48.33	36.77	73.85	0.00	0.0652	11.26	495.4	392.81	0.0586	425.9	7.666	14.86	8.28	1.74
	49.33	36.77	73.85	0.00	0.0650	11.22	493.6	391.39	0.0603	450.6	8.110	15.72	9.11	1.74
	50.31	36.78	73.85	0.00	0.0650	11.22	493.6	391.45	0.0599	440.3	7.925	15.36	8.77	1.73
	51.34	36.73	73.80	-0.00	0.0649	11.20	492.7	390.93	0.0605	451.8	8.132	15.77	9.15	1.73
	52.41	36.73	73.82	-0.00	0.0647	11.16	490.8	389.32	0.0612	455.2	8.193	15.88	9.26	1.74
	53.33	36.79	73.85	-0.00	0.0648	11.15	490.7	389.17	0.0606	456.4	8.215	15.92	9.30	1.74
	54.33	36.77	73.85	-0.00	0.0647	11.12	489.4	388.09	0.0638	481.7	8.670	16.81	10.10	1.74
	55.34	36.79	73.80	-0.00	0.0644	11.09	488.0	387.26	0.0663	512.8	9.230	17.90	11.04	1.74
	56.33	36.77	73.87	0.00	0.0642	11.04	485.8	385.06	0.0673	526.1	9.471	18.35	11.43	1.74
	57.33	36.79	73.85	-0.00	0.0642	11.02	484.9	384.55	0.0664	514.3	9.257	17.95	11.09	1.73
	58.33	36.78	73.85	0.00	0.0641	11.00	484.0	383.82	0.0665	511.8	9.213	17.86	11.02	1.74
	59.33	36.79	73.80	0.00	0.0641	11.02	485.0	384.89	0.0669	514.9	9.267	17.98	11.10	1.74
	60.31	36.76	73.82	0.00	0.0642	11.04	485.8	385.31	0.0686	539.1	9.703	18.81	11.80	1.73
	61.33	36.79	73.82	-0.00	0.0641	11.01	484.4	384.32	0.0676	529.9	9.538	18.50	11.54	1.73
	62.33	36.79	73.82	0.00	0.0643	11.05	486.0	385.53	0.0682	536.4	9.655	18.72	11.72	1.74
	63.31	36.78	73.85	0.00	0.0642	11.01	484.6	384.32	0.0684	540.5	9.729	18.86	11.84	1.74
	64.31	36.77	73.82	0.00	0.0642	11.02	485.0	384.74	0.0687	538.2	9.687	18.78	11.77	1.74
	65.33	36.73	73.80	0.00	0.0643	11.04	485.7	385.37	0.0685	536.7	9.660	18.74	11.73	1.74
	66.33	36.73	73.82	0.00	0.0643	11.05	486.4	385.81	0.0684	528.4	9.511	18.44	11.49	1.73
	67.31	36.79	73.82	0.00	0.0642	11.04	485.6	385.22	0.0710	568.8	10.239	19.86	12.62	1.74
	68.34	36.73	73.82	-0.00	0.0641	11.01	484.4	384.24	0.0692	544.6	9.803	19.01	11.95	1.73
	69.41	36.81	73.82	-0.00	0.0640	10.99	483.7	383.75	0.0719	574.1	10.334	20.04	12.76	1.74
	70.31	36.80	73.85	0.00	0.0640	10.99	483.5	383.42	0.0722	584.1	10.514	20.38	13.02	1.74
	71.33	36.78	73.77	-0.00	0.0641	11.00	484.2	384.36	0.0725	586.4	10.555	20.48	13.08	1.74
	72.34	36.76	73.85	0.00	0.0640	10.98	483.2	383.14	0.0737	596.4	10.735	20.81	13.34	1.73
	73.33	36.78	73.85	0.00	0.0638	10.95	481.8	382.08	0.0747	608.7	10.956	21.24	13.65	1.73
	74.33	36.73	73.82	-0.00	0.0638	10.94	481.2	381.65	0.0747	612.1	11.018	21.36	13.74	1.73
	75.33	36.76	73.82	0.00	0.0639	10.97	482.5	382.71	0.0724	593.4	10.680	20.71	13.26	1.74
	76.33	36.77	73.82	0.00	0.0637	10.94	481.4	381.84	0.0742	602.7	10.849	21.04	13.50	1.74
	77.33	36.71	73.82	0.00	0.0638	10.93	480.9	381.43	0.0742	607.6	10.938	21.20	13.62	1.74
	78.31	36.72	73.85	0.00	0.0638	10.94	481.3	381.58	0.0756	620.6	11.170	21.65	13.95	1.74
	79.34	36.71	73.85	-0.00	0.0640	10.97	482.5	382.58	0.0761	626.7	11.281	21.86	14.10	1.73
	80.39	36.70	73.82	0.00	0.0642	11.01	484.3	384.08	0.0762	626.5	11.276	21.86	14.09	1.73
	81.33	36.69	73.85	-0.00	0.0641	11.00	484.2	383.85	0.0761	627.8	11.300	21.90	14.12	1.74
	82.31	36.70	73.85	0.00	0.0640	10.99	483.7	383.50	0.0758	626.5	11.277	21.85	14.09	1.74
	83.33	36.64	73.87	0.00	0.0642	11.02	485.0	384.34	0.0759	628.0	11.303	21.89	14.13	1.74
	84.33	36.70	73.85	-0.00	0.0640	11.00	483.8	383.58	0.0751	615.5	11.079	21.47	13.82	1.74
	85.33	36.70	73.82	0.00	0.0640	10.99	483.5	383.45	0.0752	618.9	11.140	21.60	13.90	1.74
	86.41	36.70	73.82	-0.00	0.0641	10.99	483.7	383.64	0.0750	615.4	11.077	21.48	13.82	1.74
	87.33	36.79	73.82	-0.00	0.0641	11.00	483.8	383.81	0.0758	621.9	11.194	21.71	13.98	1.74
	88.33	36.70	73.85	-0.00	0.0640	10.99	483.5	383.32	0.0771	637.9	11.482	22.25	14.37	1.74
	89.33	36.72	73.82	0.00	0.0642	11.02	484.8	384.55	0.0787	661.0	11.898	23.07	14.92	1.74
	90.33	36.73	73.82	0.00	0.0642	11.02	485.1	384.75	0.0791	666.0	11.988	23.24	15.04	1.74
	91.31	36.74	73.82	0.00	0.0641	11.01	484.6	384.42	0.0792	665.8	11.984	23.24	15.04	1.74
	92.31	36.71	73.85	0.00	0.0639	10.96	482.3	382.39	0.0792	669.2	12.046	23.35	15.11	1.74
	93.33	36.73	73.85	-0.00	0.0638	10.93	480.8	381.23	0.0802	677.2	12.190	23.63	15.30	1.74
	94.31	36.73	73.85	0.00	0.0638	10.92	480.3	380.87	0.0810	691.9	12.453	24.14	15.63	1.74
	95.31	36.79	73.85	0.00	0.0637	10.92	480.6	381.11	0.0813	693.9	12.490	24.21	15.68	1.74
	96.33	36.76	73.80	0.00	0.0636	10.90	479.4	380.41	0.0813	694.1	12.494	24.24	15.69	1.74
	97.39	36.72	73.82	0.00	0.0637	10.91	479.9	380.64	0.0813	693.1	12.476	24.19	15.66	1.74
	98.31	36.78	73.82	0.00	0.0639	10.96	482.2	382.53	0.0804	682.9	12.292	23.84	15.43	1.74
	99.31	36.81	73.85	0.00	0.0645	11.05	486.3	385.68	0.0813	692.1	12.458	24.15	15.64	1.74
	100.34	36.74	73.85	-0.00	0.0648	11.15	490.8	389.16	0.0823	704.5	12.682	24.58	15.92	1.74
	101.31	36.80	73.85	0.00	0.0652	11.23	494.1	391.83	0.0829	713.7	12.846	24.90	16.12	1.74
	102.31	36.78	73.82	0.00	0.0654	11.28	496.4	393.80	0.0824	707.8	12.741	24.71	15.99	1.74
	103.41	36.78	73.82	0.00	0.0654	11.29	496.6	393.97	0.0838	725.8	13.065	25.33	16.39	1.74
	104.33	36.81	73.82	-0.00	0.0658	11.36	499.7	396.45	0.0840	727.0	13.086	25.38	16.41	1.74
	105.33	36.78	73.82	-0.00	0.0653	11.31	497.7	394.80	0.0839	728.7	13.117	25.44	16.45	1.74
	106.33	36.81	73.85	-0.00	0.0649	11.20	492.6	390.69	0.0836	722.8	13.011	25.23	16.32	1.74
	107.33	36.80	73.85	0.00	0.0651	11.23	494.3	391.99	0.0839	726.8	13.083	25.36	16.41	1.74
	108.31	36.81	73.85	0.00	0.0650	11.19	492.2	390.38	0.0839	726.2	13.072	25.34	16.40	1.74
	109.31	36.78	73.87	0.00	0.0649	11.17	491.5	389.63	0.0839	728.0	13.104	25.39	16.43	1.74
	110.41	36.81	73.85	-0.00	0.0647	11.14	490.2	388.77	0.0839	726.3	13.073	25.34	16.40	1.74
	111.31	36.78	73.85	0.00	0.0647	11.14	490.0	388.61	0.0837	725.8	13.064	25.32	16.39	1.74
	112.31	36.78	73.82	0.00	0.0645	11.10	488.3	387.37	0.0831	716.2	12.892	25.00	16.18	1.74
	113.31	36.81	73.82	0.00	0.0645	11.10	488.2	387.35	0.0839	724.9	13.048	25.30	16.37	1.74
	114.33	36.80	73.85	0.00	0.0644	11.08	487.4	386.55	0.0831	714.2	12.855	24.92	16.13	1.74
	115.33	36.83	73.82	0.00	0.0646	11.11	488.7	387.73	0.0836	723.1	13.016	25.24	16.33	1.74
	116.31	36.81	73.82	0.00	0.0648	11.15	490.6	389.26	0.0836	722.4	13.004	25.22	16.32	1.74
	117.33	36.78	73.85	0.00	0.0647	11.13	489.7	388.36	0.0830	714.9	12.868	24.94	16.15	1.74
	118.33	36.81	73.88	-0.00	0.0647	11.13	489.6	388.18	0.0822	704.6	12.683	24.58	15.92	1.74
	119.33	36.79	73.82	-0.00	0.0647	11.14	490.1	388.78	0.0827	711.8	12.813	24.85	16.08	1.74
	120.33	36.81	73.85	-0.00	0.0646	11.12	489.2	388.02	0.0835	719.9	12.958	25.12	16.26	1.74
	121.33	36.78	73.85	-0.00	0.0646	11.12	489.2	387.98	0.0832	718.0	12.924	25.05	16.22	1.74
	122.31	36.81	73.85	0.00	0.0646	11.12	489.4	388.15	0.0832	716.2	12.891	24.99	16.18	1.74
	123.31	36.83	73.87	0.00	0.0644	11.10	488.3	387.16	0.0840	721.7	12.990	25.18	16.30	1.74
	124.33	36.81	73.85	-0.00	0.0640	10.99	483.5	383.44	0.0857	750.9	13.515	26.20	16.92	1.74
	125.31	36.80	73.82	0.00	0.0642	11.03	485.1	384.89	0.0850	741.9	13.354	25.90	16.73	1.74
	126.31	36.78	73.85	0.00	0.0642	11.04	485.6	385.09	0.0852	743.0	13.375	25.93	16.76	1.74
	127.41	36.78	73.85	-0.00	0.0641	11.01	484.3	384.03	0.0857	750.6	13.511	26.19	16.92	1.74
	128.33	36.78	73.85	0.00	0.0641	10.99	483.6	383.51	0.0857	752.7	13.548	26.26	16.96	1.74
	129.31	36.80	73.82	0.00	0.0640	10.98	483.0	383.21	0.0859	755.2	13.594	26.36	17.01	1.74
	130.33	36.81	73.82	0.00	0.0640	10.99	483.4	383.48	0.0857	750.9	13.516	26.21	16.92	1.74
	131.33	36.79	73.85	0.00	0.0640	10.97	482.8	382.91	0.0858	753.1	13.556	26.28	16.97	1.74
	132.31	36.82	73.85	0.00	0.0640	10.97	482.9	382.98	0.0855	747.3	13.451	26.08	16.85	1.74
	133.33	36.78	73.85	-0.00	0.0640	10.98	483.0	383.05	0.0855	746.7	13.441	26.06	16.83	1.74
	134.31	36.80	73.85	0.00	0.0639	10.96	482.4	382.54	0.0855	750.0	13.500	26.17	16.90	1.74
	135.31	36.79	73.82	0.00	0.0637	10.93	480.9	381.53	0.0865	757.2	13.630	26.43	17.05	1.74
	136.33	36.80	73.85	-0.00	0.0638	10.93	481.1	381.52	0.0860	757.1	13.627	26.42	17.05	1.74
	137.31	36.82	73.82	0.00	0.0637	10.92	480.5	381.26	0.0868	766.7	13.801	26.77	17.25	1.74
	138.39	36.82	73.85	0.00	0.0638	10.93	481.0	381.46	0.0869	767.9	13.823	26.80	17.28	1.74
	139.33	36.73	73.85	-0.00	0.0640	10.97	482.8	382.82	0.0861	759.9	13.679	26.51	17.11	1.74
	140.31	36.83	73.87	0.00	0.0640	10.98	483.3	383.21	0.0864	760.9	13.696	26.55	17.13	1.74
	141.41	36.79	73.82	-0.00	0.0638	10.95	481.8	382.20	0.0874	773.3	13.919	26.99	17.39	1.74
	142.31	36.80	73.85	0.00	0.0638	10.95	481.8	382.08	0.0874	773.8	13.928	27.00	17.40	1.74
	143.31	36.83	73.82	0.00	0.0638	10.94	481.3	381.89	0.0879	781.0	14.059	27.27	17.55	1.74
	144.33	36.92	73.82	-0.00	0.0640	10.98	483.2	383.49	0.0872	771.6	13.888	26.94	17.36	1.74
	145.31	36.83	73.87	0.00	0.0641	11.01	484.4	384.08	0.0867	765.7	13.783	26.71	17.23	1.74
	146.31	36.85	73.85	0.00	0.0640	10.98	483.3	383.36	0.0873	773.7	13.926	27.00	17.40	1.74
	147.33	36.82	73.82	-0.00	0.0640	10.98	483.2	383.37	0.0874	775.3	13.955	27.07	17.43	1.74
	148.31	36.82	73.82	-0.00	0.0641	11.01	484.4	384.33	0.0872	769.9	13.858	26.88	17.32	1.74
	149.31	36.88	73.85	0.00	0.0639	10.97	482.7	382.91	0.0883	781.1	14.059	27.26	17.55	1.74
	150.31	36.88	73.85	0.00	0.0640	10.98	482.9	383.09	0.0876	780.1	14.041	27.23	17.53	1.74
	151.41	36.86	73.82	-0.00	0.0638	10.93	481.0	381.68	0.0885	791.1	14.239	27.62	17.75	1.74
	152.31	36.88	73.85	0.00	0.0637	10.93	481.1	381.62	0.0890	787.1	14.169	27.47	17.67	1.74
	153.33	36.85	73.82	-0.00	0.0638	10.91	479.9	380.81	0.0887	798.6	14.374	27.88	17.90	1.74
	154.31	36.87	73.82	0.00	0.0636	10.89	479.2	380.25	0.0894	805.2	14.494	28.11	18.03	1.74
	155.33	36.88	73.85	-0.00	0.0637	10.89	479.2	380.11	0.0889	802.2	14.439	28.00	17.97	1.74
	156.33	36.90	73.85	-0.00	0.0634	10.87	478.4	379.52	0.0906	808.5	14.553	28.22	18.10	1.74
	157.33	36.90	73.85	-0.00	0.0631	10.79	474.9	376.71	0.0913	828.7	14.917	28.93	18.49	1.74
	158.41	36.89	73.82	-0.00	0.0633	10.82	476.1	377.79	0.0907	821.8	14.792	28.69	18.36	1.74
	159.33	36.90	73.82	-0.00	0.0633	10.81	475.8	377.58	0.0902	813.3	14.640	28.40	18.19	1.74
	160.33	36.95	73.85	-0.00	0.0633	10.82	475.9	377.58	0.0901	812.3	14.621	28.36	18.18	1.74
